File: Data_31_Experiment/CA_001_C01.txt
time/s	Ewe/V	<I>/mA
1	1.49945	283.212
193	1.49934	23.5924
385	1.49966	17.6168
577	1.49938	15.0541
769	1.49947	13.3174
961	1.49945	11.6345
1153	1.49955	10.0068
1345	1.4994	8.53509
1537	1.49953	7.26723
1729	1.49962	6.20945
1920.95	-0.000878553	0.243553
2112.95	-0.00105022	0.100336
2304.95	-0.000859479	0.0908819
2496.95	-0.00106929	0.0807064
2688.95	-0.000973923	0.0569749
2880.95	-0.000954849	0.0547228
3072.95	-0.00103115	0.0528519
3264.95	-0.000935775	0.0396964
3456.95	-0.000992997	0.0385706
3648.95	-0.000802256	0.0398973
3840.95	-0.000859479	0.032354
4032.95	-0.000878553	0.0311255
4224.95	-0.000935775	0.033587
4416.95	-0.000878553	0.0292232
4608.95	-0.000954849	0.026979
4800.95	-0.00072596	0.0299166
4992.95	-0.000897627	0.0277495
5184.95	-0.00082133	0.0248866
5376.95	-0.000992997	0.0277449
5568.95	-0.000897627	0.0274274
5760.95	-0.000973923	0.0241959
5952.95	-0.00103115	0.0272387
6144.95	-0.000935775	0.0271308
6336.95	-0.00103115	0.0238428
6528.95	-0.000897627	0.0265871
6720.95	-0.000973923	0.0263712
6912.95	-0.000954849	0.0231279
7104.95	-0.00103115	0.0250303
7296.95	-0.000897627	0.0250891
7488.95	-0.000973923	0.0224264
7680.95	-0.000897627	0.0241754
7872.95	-0.000897627	0.0245152
8064.95	-0.000859479	0.0222436
8256.95	-0.000916701	0.0233032
8448.95	-0.000897627	0.0237852
8640.95	-0.00101207	0.0221853
8832.95	-0.000878553	0.0224921
9024.95	-0.000878553	0.0232159
9216.95	-0.000954849	0.022162
9408.95	-0.000973923	0.022083
9600.95	-0.000954849	0.0226397
9792.95	-0.00105022	0.02209
9984.95	-0.00105022	0.0215676
10177	-0.000897627	0.0223842
10369	-0.000916701	0.021963
10561	-0.00106929	0.0210452
10753	-0.000973923	0.0221582
10945	-2.00089	-21.0356
11137	-2.00099	-8.57009
11329	-2.00086	-5.14465
11521	-2.00089	-3.74313
11713	-0.000935775	9.0639
11905	-0.00082133	1.14921
12097	-0.000897627	0.891469
12289	-0.000992997	0.745193
12481	-0.000840404	0.67
12673	-0.000802256	0.623988
12865	-0.00101207	0.570253
13057	-0.000954849	0.536826
13249	-0.00101207	0.511917
13441	-0.000916701	0.475477
13633	-0.000840404	0.451598
13825	-0.000973923	0.432565
14017	-0.000840404	0.407889
14209	-0.00108837	0.38824
14401	1.49947	235.389
14593	1.49943	9.64709
14785	1.49945	7.83551
14977	1.49945	7.14634
15169	1.49953	6.69171
15361	1.49949	6.38045
15553	1.49962	6.08137
15745	1.49934	5.74958
15937	1.4996	5.44784
16129	1.49953	5.11422
16321	-0.000897627	0.122876
16513	-0.00082133	0.142538
16705	-0.000916701	0.120618
16897	-0.000897627	0.106457
17089	-0.000764108	0.0931755
17281	-0.00082133	0.0870921
17473	-0.00082133	0.0813872
17665	-0.000878553	0.0739122
17857	-0.000764108	0.0716485
18049	-0.000916701	0.0684849
18241	-0.000878553	0.063357
18433	-0.00101207	0.0618631
18625	-0.000878553	0.0598711
18817	-0.000916701	0.0560654
19009	-0.000859479	0.0551518
19201	-0.000954849	0.0538561
19393	-0.000897627	0.0510518
19585	-0.00101207	0.0500112
19777	-0.000916701	0.0485597
19969	-0.000878553	0.0463984
20161	-0.000878553	0.0456065
20353	-0.000840404	0.0447577
20545	-0.000802256	0.0433841
20737	-0.00105022	0.0417633
20929	-0.000878553	0.0412646
21121	-0.000954849	0.0402941
21313	-0.000859479	0.0387707
21505	-0.000954849	0.0382612
21697	-0.00101207	0.0375697
21889	-0.000859479	0.0359381
22081	-0.000802256	0.0357717
22273	-0.000878553	0.0355168
22465	-0.000878553	0.0337254
22657	-0.00103115	0.034117
22849	-0.000897627	0.0340282
23041	-0.000935775	0.03226
23233	-0.000992997	0.0321223
23425	-0.000878553	0.032003
23617	-0.000954849	0.0305078
23809	-0.00101207	0.0304223
24001	-0.000802256	0.0302884
24193	-0.000859479	0.0290387
24385	-0.000954849	0.0291847
24577	-0.000992997	0.0289759
24769	-0.00101207	0.0278793
24961	-0.000802256	0.0277134
25153	-0.000916701	0.0274986
25345	-2.00093	-13.8907
25537	-2.00078	-5.94744
25729	-2.00089	-3.83949
25921	-2.00091	-2.92136
26113	-0.000859479	8.11812
26305	-0.000878553	0.822674
26497	-0.000916701	0.567128
26689	-0.000897627	0.446978
26881	-0.00082133	0.386384
27073	-0.000897627	0.350969
27265	-0.000954849	0.326245
27457	-0.000878553	0.311857
27649	-0.000973923	0.299038
27841	-0.000935775	0.283759
28033	-0.000859479	0.275089
28225	-0.000916701	0.267865
28417	-0.000935775	0.255564
28609	-0.000840404	0.248974
28801	1.49934	216.06
28993	1.49945	6.82158
29185	1.49947	5.64455
29377	1.49968	5.23639
29569	1.49936	5.05718
29761	1.49947	4.79971
29953	1.49966	4.52183
30145	1.49962	4.32002
30337	1.49951	4.01558
30529	1.49951	3.67016
30721	-0.000935775	0.0325734
30913	-0.000878553	0.0744853
31105	-0.000878553	0.0727911
31297	-0.000935775	0.0683882
31489	-0.000992997	0.0651423
31681	-0.000954849	0.0619279
31873	-0.000840404	0.0574898
32065	-0.000973923	0.0550439
32257	-0.00106929	0.0531505
32449	-0.000840404	0.050638
32641	-0.00101207	0.0488028
32833	-0.00101207	0.047468
33025	-0.000992997	0.0457075
33217	-0.000973923	0.0439416
33409	-0.000783182	0.0430039
33601	-0.000916701	0.0421963
33793	-0.000897627	0.0404446
33985	-0.000992997	0.0399762
34177	-0.000992997	0.0395656
34369	-0.000859479	0.0377195
34561	-0.000897627	0.0373178
34753	-0.000916701	0.0371084
34945	-0.000840404	0.0353508
35137	-0.000897627	0.0362297
35329	-0.000878553	0.0359811
35521	-0.00105022	0.034375
35713	-0.000935775	0.0339365
35905	-0.000954849	0.0336059
36097	-0.000840404	0.0322946
36289	-0.000840404	0.0316924
36481	-0.000935775	0.0315446
36673	-0.000859479	0.0304093
36865	-0.000859479	0.0301905
37057	-0.000840404	0.0300162
37249	-0.000935775	0.0292592
37441	-0.000954849	0.0287902
37633	-0.000935775	0.0284914
37825	-0.000878553	0.0276282
38017	-0.000992997	0.0271907
38209	-0.000859479	0.0269062
38401	-0.000859479	0.0265283
38593	-0.000916701	0.0258056
38785	-0.000916701	0.0256245
38977	-0.000878553	0.0250923
39169	-0.000935775	0.0244653
39361	-0.000859479	0.0240372
39553	-0.000973923	0.0241343
39745	-2.00087	-10.4067
39937	-2.00084	-4.68974
40129	-2.00087	-3.09502
40321	-2.00087	-2.40875
40513	-0.000897627	8.14219
40705	-0.000916701	0.711985
40897	-0.000878553	0.47623
41089	-0.000916701	0.375556
41281	-0.00112652	0.31561
41473	-0.000783182	0.268422
41665	-0.000992997	0.242045
41857	-0.000897627	0.226238
42049	-0.000916701	0.210181
42241	-0.000859479	0.20237
42433	-0.00101207	0.196999
42625	-0.000764108	0.187765
42817	-0.000916701	0.18274
43009	-0.000935775	0.178265
43201	1.4996	171.603
43393	1.4997	6.13802
43585	1.49964	4.88312
43777	1.49943	4.32355
43969	1.49966	3.86446
44161	1.49945	3.44401
44353	1.49959	3.09681
44545	1.49945	2.73847
44737	1.49951	2.37891
44929	1.49941	2.0991
45121	-0.000916701	-0.0479208
45313	-0.00105022	0.0147752
45505	-0.000916701	0.027671
45697	-0.000840404	0.0321525
45889	-0.000954849	0.0344134
46081	-0.00106929	0.0355629
46273	-0.000802256	0.0347056
46465	-0.00082133	0.0348513
46657	-0.000840404	0.035099
46849	-0.00072596	0.0336332
47041	-0.000973923	0.0334222
47233	-0.000954849	0.0334096
47425	-0.000897627	0.0319855
47617	-0.00082133	0.0317768
47809	-0.00105022	0.0315322
48001	-0.000916701	0.0302743
48193	-0.000802256	0.0301093
48385	-0.000878553	0.0298215
48577	-0.000935775	0.0287507
48769	-0.000935775	0.0284788
48961	-0.000764108	0.0283444
49153	-0.00082133	0.0274871
49345	-0.000954849	0.0272535
49537	-0.000878553	0.0268847
49729	-0.000954849	0.0263524
49921	-0.000992997	0.0260084
50113	-0.000897627	0.025619
50305	-0.000859479	0.0252413
50497	-0.000859479	0.0247824
50689	-0.000935775	0.0245463
50881	-0.000992997	0.0244776
51073	-0.000935775	0.0238568
51265	-0.00082133	0.0235937
51457	-0.000840404	0.0235362
51649	-0.00101207	0.0227836
51841	-0.00101207	0.0226489
52033	-0.000954849	0.0227854
52225	-0.00110744	0.0219419
52417	-0.00101207	0.0217746
52609	-0.000897627	0.0219346
52801	-0.000954849	0.0209774
52993	-0.000878553	0.0209148
53185	-0.00101207	0.0210571
53377	-0.000897627	0.020213
53569	-0.000859479	0.0201931
53761	-0.00082133	0.0203039
53953	-0.000878553	0.0196651
54145	-2.00103	-8.0373
54337	-2.00082	-3.79215
54529	-2.00084	-2.62308
54721	-2.00097	-2.0973
54913	-0.000973923	8.27447
55105	-0.000916701	0.63175
55297	-0.00101207	0.424437
55489	-0.000916701	0.334454
55681	-0.000859479	0.274936
55873	-0.00105022	0.236949
56065	-0.000954849	0.210712
56257	-0.000878553	0.189871
56449	-0.000992997	0.174956
56641	-0.00103115	0.164663
56833	-0.000916701	0.156189
57025	-0.000973923	0.14935
57217	-0.000840404	0.144136
57409	-0.000935775	0.138828
57600	-0.000973923	0.132987