File: Data_31_Experiment/CA_273_020_minutes_C01.txt
time/s	Ewe/V	<I>/mA
1	1.49951	56.9209
47	1.49947	9.43817
93	1.49949	7.51843
139	1.49943	6.21469
185	1.49961	5.42348
231	1.49959	4.78267
277	1.49945	4.43869
323	1.49955	4.15111
369	1.49947	3.80819
415	1.49959	3.61648
461	1.49951	3.45853
507	1.49955	3.1567
553	1.49945	3.07649
599	1.49959	2.98834
645	1.49959	2.72602
691	1.49949	2.70285
737	1.49945	2.73007
783	1.49974	2.54021
829	1.49951	2.58273
875	1.4997	2.62636
921	1.49955	2.47634
967	1.49955	2.50983
1013	1.49957	2.52796
1059	1.49947	2.40263
1105	1.49959	2.43094
1151	1.4994	2.44017
1197	1.4994	2.34834
1242.95	-0.000877742	-0.327575
1288.95	-0.000934964	-0.118034
1334.95	-0.000896816	-0.0664833
1380.95	-0.000934964	-0.0442345
1426.95	-0.000973113	-0.0314781
1472.95	-0.000858668	-0.0235264
1518.95	-0.00091589	-0.0180071
1564.95	-0.000839594	-0.0139034
1610.95	-0.000839594	-0.0108301
1656.95	-0.000934964	-0.00848903
1702.95	-0.00082052	-0.00660679
1748.95	-0.000801446	-0.00508336
1794.95	-0.000782372	-0.00375079
1840.95	-0.000839594	-0.00273069
1886.95	-0.000896816	-0.00178126
1932.95	-0.00103033	-0.000817819
1978.95	-0.00082052	-0.000231604
2024.95	-0.000839594	0.000329723
2070.95	-0.000801446	0.00109744
2116.95	-0.000992187	0.0013177
2162.95	-0.000706075	0.00179867
2208.95	-0.000858668	0.00242334
2254.95	-0.000858668	0.00269374
2300.95	-0.000896816	0.00279954
2346.95	-0.00101126	0.00325966
2392.95	-0.000934964	0.00359311
2438.95	-0.000858668	0.00391545
2484.95	-0.000877742	0.00405656
2530.95	-0.00091589	0.0042187
2576.95	-0.000877742	0.00434643
2622.95	-0.000782372	0.00455875
2668.95	-0.000801446	0.00476595
2714.95	-0.000725149	0.00492904
2760.95	-0.000801446	0.00502939
2806.95	-0.000839594	0.00517227
2852.95	-0.000973113	0.00540647
2898.95	-0.000839594	0.00529264
2944.95	-0.000839594	0.00544977
2990.95	-0.000954038	0.00574626
3036.95	-0.00104941	0.00552544
3082.95	-0.000667927	0.00561235
3128.95	-0.00091589	0.00592586
3174.95	-0.00082052	0.00579979
3220.95	-0.000725149	0.00582291
3266.95	-0.000877742	0.0060336
3312.95	-0.000934964	0.00599537
3358.95	-0.000858668	0.00600003
3404.95	-0.000992187	0.00612335
3450.95	-0.000934964	0.00606701
3496.95	-0.00091589	0.00617125
3542.95	-0.000858668	0.0062159
3588.95	-0.000934964	0.00622128
3634.95	-0.000934964	0.00627828
3680.95	-0.00082052	0.00625614
3726.95	-0.000934964	0.00631229
3772.95	-0.000744223	0.00646923
3818.95	-0.000801446	0.00629565
3864.95	-0.000858668	0.00637458
3910.95	-0.000877742	0.00649986
3956.95	-0.000992187	0.00641525
4002.95	-0.000687001	0.00637536
4048.95	-0.000858668	0.00652096
4094.95	-0.000877742	0.00644753
4140.95	-0.000763297	0.00645605
4186.95	-0.000877742	0.00653063
4232.95	-0.00104941	0.00644324
4278.95	-0.000954038	0.00642351
4324.95	-0.000706075	0.00652983
4370.95	-0.00082052	0.00656552
4416.95	-0.00091589	0.00647634
4462.95	-0.000973113	0.00643355
4508.95	-0.000858668	0.00652129
4554.95	-0.000954038	0.00653228
4600.95	-0.000896816	0.00652357
4646.95	-0.000954038	0.00653317
4692.95	-0.000744223	0.0066152
4738.95	-0.000782372	0.00650596
4784.95	-0.000954038	0.00650799
4830.95	-0.000896816	0.0066787
4876.95	-0.000877742	0.00650833
4922.95	-0.00091589	0.00659946
4968.95	-0.00082052	0.00671971
5014.95	-0.00091589	0.00650065
5060.95	-0.000877742	0.00664405
5106.95	-0.000801446	0.00665232
5152.95	-0.000896816	0.00656259
5198.95	-0.000934964	0.00658341
5244.95	-0.000954038	0.00657859
5290.95	-0.00091589	0.00656066
5336.95	-0.000896816	0.00662086
5382.95	-0.000954038	0.00657801
5428.95	-0.000839594	0.00656354
5474.95	-0.000934964	0.00669141
5520.95	-0.000801446	0.00657012
5566.95	-0.000992187	0.0066324
5612.95	-0.000839594	0.0067063
5658.95	-0.00082052	0.00657346
5704.95	-0.000839594	0.00655319
5750.95	-0.000763297	0.00683933
5796.95	-0.000954038	0.00660651
5842.95	-0.000954038	0.00654111
5888.95	-0.00091589	0.00676406
5934.95	-0.000973113	0.0066482
5980.95	-0.000992187	0.00659521
6026.95	-0.00091589	0.0067485
6072.95	-0.00082052	0.00661821
6118.95	-0.000839594	0.00665871
6164.95	-0.000896816	0.00667974
6210.95	-0.000839594	0.0066213
6256.95	-0.000934964	0.00663313
6302.95	-0.00082052	0.00661171
6348.95	-0.000801446	0.00660415
6394.95	-0.000896816	0.00670879
6440.95	-0.000973113	0.00668096
6486.95	-0.000858668	0.00658312
6532.95	-0.000801446	0.00673747
6578.95	-0.000858668	0.00666858
6624.95	-0.000858668	0.00659629
6670.95	-0.000934964	0.0066987
6716.95	-0.000782372	0.00658706
6762.95	-0.000934964	0.00659152
6808.95	-0.000706075	0.00667609
6854.95	-0.000896816	0.00654319
6900.95	-0.000801446	0.00652325
6946.95	-0.000858668	0.00661754
6992.95	-0.000954038	0.00651589
7038.95	-0.00091589	0.00663049
7084.95	-0.000934964	0.00658614
7130.95	-0.000858668	0.00656437
7176.95	-0.00082052	0.00653293
7222.95	-0.000934964	0.00645405
7268.95	-0.000839594	0.00658728
7314.95	-0.00091589	0.00653135
7360.95	-0.000877742	0.00642778
7406.95	-0.000763297	0.00645265
7452.95	-0.00091589	0.00655155
7498.95	-0.000896816	0.00640439
7544.95	-0.000973113	0.00639395
7590.95	-0.00091589	0.00657982
7636.95	-0.000782372	0.0064046
7682.95	-0.000992187	0.00643242
7728.95	-0.00082052	0.00654574
7774.95	-0.000687001	0.00645131
7820.95	-0.000934964	0.0063482
7866.95	-0.000858668	0.00649357
7912.95	-0.000896816	0.00633783
7958.95	-0.000973113	0.00636368
8004.95	-0.00091589	0.00636315
8050.95	-0.000992187	0.00634949
8096.95	-0.000954038	0.00636762
8142.95	-0.000973113	0.00631859
8188.95	-0.000896816	0.00629293
8234.95	-0.000896816	0.00635837
8280.95	-0.000954038	0.00625556
8326.95	-0.000934964	0.00629393
8372.95	-0.000839594	0.00633215
8418.95	-0.000877742	0.00626887
8464.95	-0.000954038	0.00622272
8510.95	-0.000934964	0.00643204
8556.95	-0.000877742	0.00625573
8602.95	-0.000782372	0.00624488
8648.95	-0.000801446	0.00636729
8694.95	-0.000706075	0.00624457
8740.95	-0.000992187	0.00622318
8786.95	-0.000782372	0.00626569
8832.95	-0.000744223	0.00622732
8878.95	-0.000992187	0.00620729
8924.95	-0.00101126	0.00629481
8970.95	-0.00103033	0.00623587
9016.95	-0.000934964	0.00622776
9062.95	-0.00082052	0.00622659
9108.95	-0.000954038	0.00622187
9154.95	-0.00082052	0.00619736
9200.95	-0.000858668	0.00612152
9246.95	-0.000839594	0.00615615
9292.95	-0.000801446	0.00620037
9338.95	-0.000744223	0.00611277
9384.95	-0.000858668	0.00612549
9430.95	-0.000801446	0.00620755
9476.95	-0.000954038	0.00604239
9522.95	-0.000782372	0.00610759
9568.95	-0.000973113	0.0062347
9614.95	-0.000934964	0.00609708
9660.95	-0.00091589	0.00605542
9706.95	-0.000973113	0.00621187
9752.95	-0.00103033	0.00609764
9798.95	-0.00082052	0.00610973
9844.95	-0.000839594	0.00606332
9890.95	-0.00091589	0.00607413
9936.95	-0.00082052	0.00607507
9982.95	-0.000934964	0.00608156
10029	-0.000973113	0.00601061
10075	-0.00091589	0.00608343
10121	-0.000858668	0.0060182
10167	-0.00082052	0.00602011
10213	-2.00063	-38.0293
10259	-2.00089	-11.6144
10305	-2.00089	-7.31384
10351	-2.00082	-5.61306
10397	-2.00084	-4.72991
10443	-2.00087	-4.20958
10489	-2.0008	-3.8155
10535	-2.00087	-3.53803
10581	-2.00076	-3.32809
10627	-2.00072	-3.15918
10673	-2.00074	-3.04572
10719	-2.00082	-2.90801
10765	-2.00082	-2.82786
10811	-2.00084	-2.76887
10857	-2.00072	-2.68833
10903	-2.00091	-2.64442
10949	-2.00078	-2.61456
10995	-2.00087	-2.55228
11041	-2.00091	-2.50876
11087	-2.00082	-2.4872
11133	-0.000992187	2.11803
11179	-0.000934964	0.791177
11225	-0.000839594	0.50342
11271	-0.00082052	0.377817
11317	-0.000801446	0.309152
11363	-0.000934964	0.26578
11409	-0.000896816	0.236928
11455	-0.000954038	0.214542
11501	-0.00101126	0.197829
11547	-0.000839594	0.184926
11593	-0.000954038	0.173143
11639	-0.000744223	0.163636
11685	-0.000973113	0.156068
11731	-0.000839594	0.148553
11777	-0.00091589	0.142339
11823	-0.00091589	0.136924
11869	-0.000896816	0.131658
11915	-0.000858668	0.127002
11961	-0.000877742	0.122797
12007	-0.000934964	0.118994
12053	-0.00103033	0.115511
12099	-0.00091589	0.112072
12145	-0.000858668	0.10896
12191	-0.000973113	0.106272
12237	-0.00091589	0.103177
12283	-0.000801446	0.10063
12329	-0.00091589	0.0987754
12375	-0.000801446	0.09618
12421	-0.000954038	0.094117
12467	-0.000877742	0.0924205
12513	-0.000839594	0.0902992
12559	-0.000801446	0.0884902
12605	-0.00091589	0.0870251
12651	-0.000877742	0.0852794
12697	-0.000839594	0.0837981
12743	-0.000934964	0.0824719
12789	-0.000992187	0.0809007
12835	-0.000839594	0.079696
12881	-0.000839594	0.0784693
12927	-0.00082052	0.0771515
12973	-0.000896816	0.0762282
13019	-0.00103033	0.0750311
13065	-0.000839594	0.0740706
13111	-0.000954038	0.073272
13157	-0.00091589	0.0721018
13203	-0.000839594	0.0712097
13249	-0.000858668	0.0706467
13295	-0.000839594	0.0695285
13341	-0.000877742	0.0686428
13387	-0.000801446	0.0684811
13433	-0.000801446	0.0673314
13479	-0.000763297	0.0665798
13525	-0.000858668	0.0660467
13571	-0.000687001	0.0651853
13617	-0.00082052	0.0645233
13663	-0.00091589	0.0640116
13709	-0.00091589	0.0633752
13755	-0.000839594	0.0626941
13800	-0.000934964	0.0623227