File: Data_33_Experiment/CA_001_C01.txt
time/s	Ewe/V	<I>/mA
1	1.49951	343.383
217	1.49959	15.4037
433	1.49932	14.674
649	1.49943	12.7444
865	1.4996	10.646
1081	1.49949	8.90864
1297	1.49951	7.43568
1513	1.49951	6.18898
1729	1.49949	5.21795
1945	1.49951	4.43488
2161	1.49951	3.86643
2377	1.49955	3.41255
2593	1.49951	3.06744
2809	1.49936	2.77357
3025	1.49968	2.54912
3241	1.49943	2.34343
3457	1.49949	2.18245
3672.98	-0.00103115	-0.223059
3888.98	-0.000897627	-0.0489416
4104.98	-0.000897627	-0.0139356
4320.98	-0.000973923	-0.00268008
4536.98	-0.000916701	0.0080466
4752.99	-0.000935775	0.0112656
4968.99	-0.000878553	0.0148801
5184.99	-0.000878553	0.017665
5400.99	-0.000916701	0.0185503
5616.99	-0.000802256	0.0197922
5832.99	-0.00082133	0.0186705
6048.99	-0.000973923	0.0213774
6264.99	-0.000878553	0.0201298
6480.99	-0.00101207	0.0229075
6696.99	-0.000840404	0.020512
6912.99	-0.00103115	0.0224361
7128.99	-0.00108837	0.018511
7344.99	-0.000859479	0.0225236
7560.99	-0.000878553	0.0193808
7776.99	-0.000897627	0.0221643
7992.99	-0.000954849	0.0195313
8208.99	-0.000954849	0.0219276
8424.99	-0.000878553	0.019237
8640.99	-0.000935775	0.0220194
8856.99	-0.000954849	0.0199734
9072.99	-0.000840404	0.022222
9288.99	-0.000859479	0.0190128
9504.99	-0.000783182	0.0214274
9720.99	-0.000954849	0.0199409
9936.99	-0.000973923	0.0210026
10153	-0.000954849	0.0201765
10369	-0.000954849	0.0210355
10585	-0.00072596	0.0196425
10801	-0.000859479	0.0200187
11017	-0.000954849	0.0194636
11233	-0.000954849	0.0196161
11449	-0.000897627	0.0193151
11665	-0.000954849	0.0193243
11881	-0.000954849	0.0203387
12097	-0.000916701	0.0189262
12313	-0.000992997	0.0197905
12529	-0.00103115	0.0193194
12745	-2.00076	-20.8921
12961	-2.00082	-8.48847
13177	-2.00087	-4.98377
13393	-2.00084	-3.67371
13609	-0.000916701	1.48097
13825	-0.000802256	0.881977
14041	-0.000935775	0.710722
14257	-0.000897627	0.585643
14473	-0.000992997	0.539707
14689	-0.000878553	0.474905
14905	-0.000897627	0.458859
15121	-0.000916701	0.412355
15337	-0.000897627	0.404607
15553	-0.000935775	0.366292
15769	-0.000859479	0.362126
15985	-0.000973923	0.329518
16201	1.49962	353.093
16417	1.49949	11.2963
16633	1.49957	8.84104
16849	1.49957	7.35307
17065	1.49947	6.05631
17281	1.49945	4.93004
17497	1.49955	3.93515
17713	1.49949	3.19463
17929	1.49936	2.67308
18145	1.49945	2.32468
18361	1.4994	2.0422
18577	1.49968	1.86796
18793	1.49951	1.75554
19009	1.49947	1.75631
19225	1.49949	1.61181
19441	1.4994	1.63329
19657	1.49947	1.48702
19873	-0.000859479	-0.302013
20089	-0.000859479	-0.0764532
20305	-0.000897627	-0.0387106
20521	-0.000878553	-0.0215457
20737	-0.000840404	-0.010925
20953	-0.00082133	-0.00231655
21169	-0.000859479	0.00404895
21385	-0.000916701	0.0078731
21601	-0.000973923	0.0109009
21817	-0.000859479	0.0124079
22033	-0.000935775	0.0136908
22249	-0.00103115	0.0166604
22465	-0.00101207	0.0204553
22681	-0.000897627	0.0186036
22897	-0.000916701	0.0215866
23113	-0.000916701	0.0214375
23329	-0.000802256	0.0230975
23545	-0.000973923	0.0221407
23761	-0.000935775	0.0242938
23977	-0.000840404	0.0229563
24193	-0.000935775	0.0259008
24409	-0.000897627	0.0247631
24625	-0.000897627	0.024989
24841	-0.000859479	0.0236082
25057	-0.000859479	0.0244532
25273	-0.00103115	0.0245565
25489	-0.000916701	0.0257688
25705	-0.00114559	0.0249186
25921	-0.000802256	0.0250232
26137	-0.00103115	0.0237974
26353	-0.000973923	0.0243172
26569	-0.000973923	0.0243641
26785	-0.000859479	0.0244227
27001	-0.000992997	0.0235568
27217	-0.000878553	0.0233248
27433	-0.000840404	0.0238059
27649	-0.000859479	0.0238536
27865	-0.00082133	0.0229387
28081	-0.000935775	0.0227994
28297	-0.000897627	0.0219636
28513	-0.00103115	0.0217994
28729	-0.000878553	0.0224376
28945	-2.00082	-14.3724
29161	-2.00091	-6.29412
29377	-2.00086	-3.97121
29593	-2.00082	-2.94752
29809	-0.000954849	1.14133
30025	-0.00101207	0.608347
30241	-0.000706886	0.445467
30457	-0.00103115	0.35828
30673	-0.000916701	0.302589
30889	-0.000878553	0.266269
31105	-0.000897627	0.240688
31321	-0.000859479	0.2281
31537	-0.000783182	0.216207
31753	-0.00101207	0.214871
31969	-0.000973923	0.205478
32185	-0.000840404	0.205366
32401	1.4996	247.729
32617	1.49951	7.92236
32833	1.49945	6.36952
33049	1.49949	5.21093
33265	1.49957	4.0614
33481	1.49943	2.88755
33697	1.49951	2.22708
33913	1.49943	1.89637
34129	1.49941	1.83797
34345	1.49953	1.73562
34561	1.49945	1.6749
34777	1.49953	1.59129
34993	1.49947	1.5269
35209	1.49936	1.46088
35425	1.4994	1.42359
35641	1.49949	1.36732
35857	1.49957	1.32415
36073	-0.000859479	-0.321526
36289	-0.000935775	-0.0756428
36505	-0.00106929	-0.0398704
36721	-0.000954849	-0.0242403
36937	-0.000935775	-0.0147691
37153	-0.00101207	-0.00851791
37369	-0.000897627	-0.00447921
37585	-0.000897627	-0.000791541
37801	-0.00110744	0.00284386
38017	-0.00112652	0.00507196
38233	-0.00082133	0.00621686
38449	-0.000783182	0.00840996
38665	-0.000840404	0.00958022
38881	-0.000916701	0.0103347
39097	-0.000840404	0.0116303
39313	-0.000973923	0.0133047
39529	-0.00103115	0.0129561
39745	-0.00082133	0.0143799
39961	-0.000954849	0.0141198
40177	-0.000935775	0.0152769
40393	-0.000916701	0.0149638
40609	-0.000916701	0.0160697
40825	-0.000859479	0.0159079
41041	-0.000897627	0.01691
41257	-0.000745034	0.0166696
41473	-0.000840404	0.0174933
41689	-0.000973923	0.0163363
41905	-0.000878553	0.0179758
42121	-0.000783182	0.0164771
42337	-0.000916701	0.0175066
42553	-0.000916701	0.0172537
42769	-0.000897627	0.0180413
42985	-0.000897627	0.0172981
43201	-0.000878553	0.0176518
43417	-0.000764108	0.0171999
43633	-0.000802256	0.0175482
43849	-0.000954849	0.0171321
44065	-0.000897627	0.0173719
44281	-0.000859479	0.0170089
44497	-0.000992997	0.0169324
44713	-0.000954849	0.0166776
44929	-0.000668738	0.0169668
45145	-2.00086	-9.55635
45361	-2.00076	-4.44383
45577	-2.00076	-2.97928
45793	-2.00076	-2.32783
46009	-0.00072596	0.988888
46225	-0.000840404	0.501217
46441	-0.000859479	0.368767
46657	-0.000859479	0.302991
46873	-0.000916701	0.25683
47089	-0.00082133	0.224473
47305	-0.000859479	0.197982
47521	-0.000897627	0.178315
47737	-0.000802256	0.162709
47953	-0.000897627	0.151281
48169	-0.00082133	0.14291
48385	-0.000954849	0.136642
48601	1.49947	184.311
48817	1.49943	6.1312
49033	1.49945	4.00676
49249	1.49953	2.62246
49465	1.49953	2.09301
49681	1.49941	1.90547
49897	1.49972	1.81414
50113	1.49957	1.61748
50329	1.49953	1.57156
50545	1.49941	1.45395
50761	1.49955	1.41562
50977	1.4996	1.34243
51193	1.49955	1.30255
51409	1.4994	1.25531
51625	1.49943	1.22697
51841	1.49972	1.16769
52057	1.49951	1.15976
52273	-0.000935775	-0.329069
52489	-0.000840404	-0.0691252
52705	-0.00072596	-0.032075
52921	-0.000916701	-0.0183736
53137	-0.00101207	-0.0107283
53353	-0.000992997	-0.00583858
53569	-0.00101207	-0.00253496
53785	-0.000840404	1.97432e-05
54001	-0.00082133	0.00210668
54217	-0.000897627	0.00366101
54433	-0.000840404	0.00437017
54649	-0.000840404	0.00572341
54865	-0.00101207	0.00660616
55081	-0.000935775	0.00755253
55297	-0.000897627	0.00814392
55513	-0.000783182	0.00839797
55729	-0.000878553	0.00935949
55945	-0.000878553	0.00933559
56161	-0.000878553	0.0102319
56377	-0.000897627	0.0101315
56593	-0.000973923	0.0101953
56809	-0.000935775	0.0105733
57025	-0.000859479	0.011037
57241	-0.00082133	0.011041
57457	-0.000802256	0.0117005
57673	-0.000954849	0.0114162
57889	-0.000783182	0.0116564
58105	-0.000897627	0.0116641
58321	-0.000916701	0.0118803
58537	-0.000954849	0.0114072
58753	-0.000745034	0.0123057
58969	-0.000916701	0.0118424
59185	-0.000954849	0.0125045
59401	-0.000935775	0.0118277
59617	-0.000973923	0.0126267
59833	-0.000802256	0.011947
60049	-0.000935775	0.0125308
60265	-0.00101207	0.0118751
60481	-0.000973923	0.012252
60697	-0.000859479	0.011468
60913	-0.000859479	0.0118716
61129	-0.000992997	0.0115494
61345	-2.00082	-6.77203
61561	-2.00086	-3.26515
61777	-2.00095	-2.30869
61993	-2.00097	-1.85787
62209	-0.000916701	0.909071
62425	-0.00106929	0.411206
62641	-0.000954849	0.305391
62857	-0.000916701	0.243272
63073	-0.000992997	0.206029
63289	-0.000973923	0.175595
63505	-0.000897627	0.154599
63721	-0.000935775	0.137179
63937	-0.000992997	0.124733
64153	-0.000897627	0.113635
64369	-0.000764108	0.105613
64585	-0.000954849	0.0983334
64800	-0.000878553	0.0931875