File: Data_33_Experiment/CA_268_045_minutes_C01.txt
time/s	Ewe/V	<I>/mA
1	1.49943	122.255
52	1.49943	20.4723
103	1.49951	14.9009
154	1.49953	12.0088
205	1.49936	10.9344
256	1.49945	10.3372
307	1.49968	9.88163
358	1.49943	9.74531
409	1.49949	9.52754
460	1.49951	9.33849
511	1.49957	9.22353
562	1.49951	9.01405
613	1.49953	8.69944
664	1.49941	8.39468
715	1.49945	8.13646
766	1.49947	7.88547
817	1.49955	7.61525
868	1.49968	7.34754
919	1.49945	7.04539
970	1.49951	6.68776
1021	1.49938	6.40956
1072	1.49959	6.17747
1123	1.49962	5.94306
1174	1.49959	5.73098
1225	1.49943	5.54708
1276	1.49962	5.34982
1327	1.49943	5.13647
1378	1.49957	5.01638
1429	1.49962	4.91603
1480	1.49928	4.77621
1531	1.49953	4.66933
1582	1.49949	4.56585
1633	1.49943	4.40209
1684	1.49947	4.24014
1735	1.49955	4.16413
1786	1.49951	4.07112
1837	1.49949	3.96114
1888	1.49959	3.86928
1939	1.49962	3.76713
1990	1.49964	3.61049
2041	1.49962	3.46916
2092	1.49961	3.40778
2143	1.49955	3.33976
2194	1.49949	3.27204
2245	1.49968	3.27646
2296	1.49947	3.20286
2347	1.49945	3.09512
2398	1.49957	3.0237
2449	1.49947	3.00386
2500	1.49947	2.96155
2551	1.49974	2.91801
2602	1.49957	2.88242
2653	1.49962	2.82112
2703.95	-0.00091589	-7.58647
2754.95	-0.000934964	-0.415051
2805.95	-0.000782372	-0.205535
2856.95	-0.000934964	-0.140414
2907.95	-0.000725149	-0.107832
2958.95	-0.000896816	-0.0882633
3009.95	-0.000839594	-0.0756663
3060.95	-0.000896816	-0.0670755
3111.95	-0.000801446	-0.0605301
3162.95	-0.000877742	-0.0555143
3213.95	-0.000877742	-0.0518832
3264.95	-0.000973113	-0.0492679
3315.95	-0.000954038	-0.0468043
3366.95	-0.00091589	-0.0449647
3417.95	-0.000934964	-0.0435276
3468.95	-0.000877742	-0.0419167
3519.95	-0.000934964	-0.0408207
3570.95	-0.000896816	-0.0397916
3621.95	-0.00103033	-0.0389479
3672.95	-0.000801446	-0.0378488
3723.95	-0.000782372	-0.0373338
3774.95	-0.00091589	-0.0365769
3825.95	-0.000896816	-0.0358078
3876.95	-0.000992187	-0.0352233
3927.95	-0.00091589	-0.034758
3978.95	-0.000992187	-0.0342291
4029.95	-0.000973113	-0.0334477
4080.95	-0.000973113	-0.0330881
4131.95	-0.000858668	-0.0325364
4182.95	-0.000973113	-0.0320465
4233.95	-0.000877742	-0.0315424
4284.95	-0.00082052	-0.0310314
4335.95	-0.000992187	-0.030458
4386.95	-0.000896816	-0.0299512
4437.95	-0.00104941	-0.0295656
4488.95	-0.000877742	-0.0292108
4539.95	-0.000801446	-0.0287236
4590.95	-0.000877742	-0.0283042
4641.95	-0.000858668	-0.0278451
4692.95	-0.000877742	-0.0274676
4743.95	-0.000877742	-0.0270963
4794.95	-0.000896816	-0.0268299
4845.95	-0.00082052	-0.0264135
4896.95	-0.000839594	-0.0260147
4947.95	-0.000934964	-0.0257333
4998.95	-0.000896816	-0.0252268
5049.95	-0.000934964	-0.024644
5100.95	-0.00101126	-0.0245288
5151.95	-0.000896816	-0.0243288
5202.95	-0.000801446	-0.0237231
5253.95	-0.00082052	-0.0234535
5304.95	-0.000839594	-0.0231234
5355.95	-0.00106848	-0.0227822
5406.95	-0.000992187	-0.0222909
5457.95	-0.000782372	-0.0222711
5508.95	-0.000954038	-0.0220036
5559.95	-0.00082052	-0.021455
5610.95	-0.00091589	-0.0211717
5661.95	-0.000858668	-0.0210301
5712.95	-0.00091589	-0.0204767
5763.95	-0.000801446	-0.019992
5814.95	-0.00082052	-0.0199786
5865.95	-0.00082052	-0.0197142
5916.95	-0.000839594	-0.0194789
5967.95	-0.000896816	-0.0192028
6018.95	-0.00106848	-0.0188989
6069.95	-0.000934964	-0.0184818
6120.95	-0.000992187	-0.018243
6171.95	-0.00082052	-0.0182066
6222.95	-0.000801446	-0.0179496
6273.95	-0.000839594	-0.0175343
6324.95	-0.000763297	-0.0173848
6375.95	-0.000934964	-0.0170852
6426.95	-0.000877742	-0.0167139
6477.95	-0.000896816	-0.0165891
6528.95	-0.000896816	-0.0164047
6579.95	-0.000934964	-0.0162332
6630.95	-0.000858668	-0.0160955
6681.95	-0.000973113	-0.0158907
6732.95	-0.000877742	-0.0155646
6783.95	-0.000934964	-0.0151035
6834.95	-0.00103033	-0.0149562
6885.95	-0.000763297	-0.0147366
6936.95	-0.000992187	-0.0144103
6987.95	-0.000973113	-0.0141192
7038.95	-0.000896816	-0.0139565
7089.95	-0.000934964	-0.013521
7140.95	-0.000858668	-0.0130077
7191.95	-0.000934964	-0.0130732
7242.95	-0.00082052	-0.0127432
7293.95	-0.00104941	-0.0124773
7344.95	-0.000992187	-0.0122491
7395.95	-0.000744223	-0.0119994
7446.95	-0.000896816	-0.0115215
7497.95	-0.000934964	-0.0113313
7548.95	-0.000973113	-0.0113706
7599.95	-0.000782372	-0.0111309
7650.95	-0.000992187	-0.0110476
7701.95	-0.000934964	-0.0108346
7752.95	-0.000839594	-0.0105825
7803.95	-0.000934964	-0.0101091
7854.95	-0.000877742	-0.0100614
7905.95	-0.000877742	-0.00998095
7956.95	-0.000896816	-0.00971834
8007.95	-0.000877742	-0.00960943
8058.95	-0.000973113	-0.00941837
8109.95	-0.000973113	-0.00910795
8160.95	-0.000954038	-0.00870554
8211.95	-0.000973113	-0.0087683
8262.95	-0.000858668	-0.0084301
8313.95	-0.000954038	-0.00808968
8364.95	-0.000801446	-0.0077378
8415.95	-0.00091589	-0.00767088
8466.95	-0.000877742	-0.0073865
8517.95	-0.00082052	-0.00729996
8568.95	-0.000896816	-0.00747454
8619.95	-0.00103033	-0.00717334
8670.95	-0.000992187	-0.00694274
8721.95	-0.000839594	-0.00675289
8772.95	-0.000992187	-0.00642698
8823.95	-0.00091589	-0.00591978
8874.95	-0.00091589	-0.00594346
8925.95	-0.00101126	-0.00597036
8976.95	-0.00101126	-0.00580528
9027.95	-0.000877742	-0.00549628
9078.95	-0.000973113	-0.00519522
9129.95	-0.00101126	-0.00468305
9180.95	-0.00091589	-0.00415357
9231.95	-0.000896816	-0.00435579
9282.95	-0.000896816	-0.00424256
9333.95	-0.000973113	-0.00410044
9384.95	-0.000992187	-0.00392431
9435.95	-0.00082052	-0.0038416
9486.95	-0.000839594	-0.00349963
9537.95	-0.000896816	-0.00323021
9588.95	-0.000992187	-0.00332068
9639.95	-0.000839594	-0.00319977
9690.95	-0.000896816	-0.00311523
9741.95	-0.000934964	-0.00297602
9792.95	-0.00104941	-0.00279456
9843.95	-0.000706075	-0.00232545
9894.95	-0.000992187	-0.00202702
9945.95	-0.00082052	-0.00208249
9996.95	-0.000782372	-0.00199093
10048	-0.00082052	-0.0017248
10099	-0.000763297	-0.00175685
10150	-0.00106848	-0.00166374
10201	-0.000744223	-0.00116478
10252	-0.000973113	-0.00125939
10303	-0.000973113	-0.00124118
10354	-0.000744223	-0.00109802
10405	-0.000934964	-0.00104818
10456	-0.00082052	-0.000968673
10507	-0.000954038	-0.00071022
10558	-0.000858668	-0.000325787
10609	-0.000934964	-0.000486481
10660	-0.000839594	-0.000474321
10711	-0.000839594	-0.000363432
10762	-0.000954038	-0.000217457
10813	-0.000839594	-0.000235623
10864	-0.00091589	-5.33412e-07
10915	-0.000839594	0.000182129
10966	-0.000992187	9.7805e-05
11017	-0.000839594	0.000175225
11068	-0.000858668	0.000418872
11119	-0.000877742	0.000502563
11170	-0.000877742	0.000687166
11221	-0.000877742	0.00116707
11272	-0.000992187	0.00132057
11323	-0.000954038	0.00142983
11374	-0.000954038	0.00159541
11425	-0.000954038	0.001719
11476	-0.000801446	0.00179746
11527	-0.000858668	0.0020045
11578	-0.000954038	0.00233852
11629	-0.00082052	0.00219809
11680	-0.000896816	0.00215385
11731	-2.00093	-42.2931
11782	-2.00097	-19.2356
11833	-2.00085	-12.4499
11884	-2.00085	-9.35992
11935	-2.00085	-7.57248
11986	-2.00084	-6.46309
12037	-2.00082	-5.66287
12088	-2.00093	-5.09466
12139	-2.00078	-4.66567
12190	-2.00103	-4.31002
12241	-2.00084	-4.05268
12292	-2.0007	-3.83679
12343	-2.00085	-3.6417
12394	-2.00074	-3.45943
12445	-2.00078	-3.30073
12496	-2.00093	-3.1573
12547	-2.00099	-3.08086
12598	-2.00097	-2.28233
12649	-0.000706075	1.53903
12700	-0.000858668	0.741823
12751	-0.00091589	0.534653
12802	-0.000763297	0.437158
12853	-0.000782372	0.380725
12904	-0.00091589	0.343068
12955	-0.000896816	0.316941
13006	-0.000973113	0.295505
13057	-0.00082052	0.277838
13108	-0.000725149	0.263808
13159	-0.00091589	0.25167
13210	-0.000782372	0.2408
13261	-0.000992187	0.231181
13312	-0.00103033	0.22265
13363	-0.000992187	0.213536
13414	-0.000973113	0.204555
13465	-0.00101126	0.196728
13516	-0.000763297	0.188979
13567	-0.000896816	0.182166
13618	-0.000896816	0.176537
13669	-0.00082052	0.171158
13720	-0.000973113	0.165348
13771	-0.000858668	0.160514
13822	-0.000877742	0.156351
13873	-0.000877742	0.151914
13924	-0.000973113	0.14818
13975	-0.000896816	0.145119
14026	-0.000839594	0.141905
14077	-0.00091589	0.138311
14128	-0.00082052	0.135707
14179	-0.000725149	0.133103
14230	-0.000801446	0.130431
14281	-0.00108756	0.127973
14332	-0.00091589	0.126728
14383	-0.00091589	0.124544
14434	-0.00104941	0.122199
14485	-0.000896816	0.120381
14536	-0.000934964	0.118437
14587	-0.00091589	0.11677
14638	-0.000858668	0.115599
14689	-0.000877742	0.114627
14740	-0.00091589	0.112553
14791	-0.000934964	0.111153
14842	-0.000954038	0.109729
14893	-0.000934964	0.108306
14944	-0.000744223	0.10722
14995	-0.00082052	0.106791
15046	-0.000877742	0.10566
15097	-0.000858668	0.104114
15148	-0.00110663	0.103016
15199	-0.000858668	0.102146
15250	-0.000877742	0.101051
15300	-0.000973113	0.100185