File: Data_29_Experiment/CA_001_C01.txt
time/s	Ewe/V	<I>/mA
1	1.49941	263.141
177	1.49943	6.89996
353	1.49949	9.04555
529	1.49941	10.5793
704.952	-0.000916701	1.05834
880.952	-0.00106929	0.544479
1056.95	-0.00082133	0.379495
1232.95	-0.000897627	0.296378
1408.95	-0.000840404	0.251771
1584.95	-0.000916701	0.226577
1760.95	-0.000935775	0.207969
1936.95	-0.000897627	0.194522
2112.95	-0.000764108	0.18567
2288.95	-0.000954849	0.177859
2464.95	-0.000859479	0.169491
2640.95	-0.000878553	0.160894
2816.95	-0.000878553	0.151443
2992.95	-0.000954849	0.142925
3168.95	-0.00106929	0.134964
3344.95	-0.00082133	0.128061
3520.95	-0.00108837	0.122945
3696.95	-0.000935775	0.117873
3872.95	-0.000973923	0.111342
4048.95	-0.000764108	0.105428
4224.95	-0.000954849	0.0994441
4400.95	-0.000935775	0.0952448
4576.95	-0.000878553	0.0910097
4752.95	-0.000878553	0.0869486
4928.95	-0.000859479	0.0837045
5104.95	-0.000954849	0.0810833
5280.95	-0.000954849	0.0781108
5456.95	-0.000764108	0.0751886
5632.95	-0.000897627	0.0733211
5808.95	-0.00082133	0.0701857
5984.95	-0.000859479	0.067469
6160.95	-0.000973923	0.0646941
6336.95	-0.000802256	0.0627934
6512.95	-0.000916701	0.0615035
6688.95	-0.00072596	0.0596272
6864.95	-0.000897627	0.0579239
7040.95	-0.000992997	0.0563986
7216.95	-0.000897627	0.0548554
7392.95	-0.00106929	0.0535159
7568.95	-0.000897627	0.0522944
7744.95	-0.000764108	0.0511969
7920.95	-0.000745034	0.0506315
8096.95	-0.00103115	0.0496901
8272.95	-0.000935775	0.048749
8448.95	-0.000916701	0.0477562
8624.95	-0.00101207	0.0467694
8800.95	-0.000706886	0.0458579
8976.95	-0.000916701	0.0458188
9152.95	-0.000935775	0.0448257
9328.95	-0.000935775	0.0447358
9504.95	-0.000916701	0.0440596
9680.96	-2.00087	-18.294
9856.96	-2.00093	-8.94113
10033	-2.00087	-7.63965
10209	-2.00093	-7.24825
10385	-2.00091	-7.24391
10561	-0.000840404	3.22739
10737	-0.000783182	1.98437
10913	-0.000878553	1.70096
11089	-0.000878553	1.49319
11265	-0.000916701	1.33185
11441	-0.000973923	1.19187
11617	-0.00108837	1.06923
11793	-0.000992997	0.957887
11969	-0.000973923	0.858871
12145	-0.000859479	0.769919
12321	-0.000897627	0.68346
12497	-0.000802256	0.594548
12673	-0.00072596	0.512078
12849	-0.000973923	0.434949
13025	-0.00101207	0.369085
13201	1.4996	269.447
13377	1.49953	17.9147
13553	1.49947	11.7764
13729	1.49951	9.26551
13905	-0.000992997	0.532476
14081	-0.000878553	0.221153
14257	-0.000878553	0.15245
14433	-0.000935775	0.128571
14609	-0.000992997	0.110863
14785	-0.000859479	0.0968205
14961	-0.000840404	0.0859843
15137	-0.00082133	0.0796907
15313	-0.00106929	0.075144
15489	-0.000992997	0.0691303
15665	-0.000878553	0.0641753
15841	-0.000916701	0.059948
16017	-0.00106929	0.0571755
16193	-0.000878553	0.0545846
16369	-0.00106929	0.0525755
16545	-0.00101207	0.0517075
16721	-0.000859479	0.0507932
16897	-0.00103115	0.0483329
17073	-0.000992997	0.0461878
17249	-0.00101207	0.0450242
17425	-0.000954849	0.044178
17601	-0.000992997	0.0429491
17777	-0.000992997	0.0412734
17953	-0.000897627	0.0409397
18129	-0.00103115	0.0411735
18305	-0.000783182	0.0400691
18481	-0.000840404	0.039085
18657	-0.000916701	0.0379649
18833	-0.000916701	0.0370441
19009	-0.00082133	0.0362699
19185	-0.000916701	0.0354625
19361	-0.000954849	0.0350497
19537	-0.000764108	0.0355198
19713	-0.000973923	0.0348595
19889	-0.000840404	0.0337183
20065	-0.000859479	0.0330156
20241	-0.000897627	0.0326222
20417	-0.000935775	0.0321856
20593	-0.000973923	0.031618
20769	-0.000954849	0.031313
20945	-0.000992997	0.0315584
21121	-0.000897627	0.0318123
21297	-0.00106929	0.0310812
21473	-0.000783182	0.0306729
21649	-0.000897627	0.0303686
21825	-0.000706886	0.0301217
22001	-0.000878553	0.0294956
22177	-0.000973923	0.029283
22353	-0.000916701	0.0295176
22529	-0.000954849	0.0296696
22705	-0.000859479	0.0287619
22881	-2.00087	-18.5394
23057	-2.00076	-6.25352
23233	-2.00091	-4.50193
23409	-2.00086	-3.80543
23585	-2.00091	-3.43684
23761	-0.000935775	2.46595
23937	-0.000916701	1.25685
24113	-0.00101207	0.985819
24289	-0.000802256	0.817603
24465	-0.000878553	0.714356
24641	-0.000935775	0.642864
24817	-0.00105022	0.588452
24993	-0.000916701	0.543077
25169	-0.000840404	0.505848
25345	-0.000992997	0.474736
25521	-0.000992997	0.447367
25697	-0.000859479	0.418552
25873	-0.000935775	0.394252
26049	-0.000878553	0.373754
26225	-0.000973923	0.355316
26401	1.49951	232.204
26577	1.49951	10.019
26753	1.49947	8.08181
26929	1.49945	7.35348
27105	-0.000840404	0.310437
27281	-0.000840404	0.219097
27457	-0.000840404	0.161317
27633	-0.000973923	0.134876
27809	-0.000935775	0.117627
27985	-0.000878553	0.10376
28161	-0.000916701	0.0936684
28337	-0.000783182	0.0870596
28513	-0.000878553	0.0797241
28689	-0.000954849	0.0724756
28865	-0.000897627	0.0671625
29041	-0.000745034	0.0627362
29217	-0.000973923	0.0589445
29393	-0.000859479	0.0556635
29569	-0.000897627	0.0529484
29745	-0.000878553	0.0516627
29921	-0.000897627	0.0489263
30097	-0.000745034	0.0463995
30273	-0.000897627	0.0445638
30449	-0.000668738	0.0428298
30625	-0.000878553	0.0412453
30801	-0.000859479	0.0398015
30977	-0.00105022	0.0387263
31153	-0.00101207	0.038312
31329	-0.000935775	0.0371882
31505	-0.000802256	0.0356828
31681	-0.000783182	0.0347005
31857	-0.00072596	0.0336855
32033	-0.000916701	0.0329145
32209	-0.000764108	0.0320931
32385	-0.000954849	0.0316098
32561	-0.00101207	0.0313514
32737	-0.000916701	0.0309668
32913	-0.00118374	0.030185
33089	-0.000840404	0.0292215
33265	-0.000878553	0.0285874
33441	-0.000687812	0.0279866
33617	-0.00105022	0.02745
33793	-0.00105022	0.0269488
33969	-0.000878553	0.02674
34145	-0.000973923	0.0268896
34321	-0.000935775	0.0261032
34497	-0.000764108	0.0254703
34673	-0.00110744	0.0251183
34849	-0.000897627	0.0247512
35025	-0.000878553	0.0242866
35201	-0.000706886	0.0238983
35377	-0.000935775	0.0237718
35553	-0.000764108	0.0239889
35729	-0.000935775	0.0236747
35905	-0.000935775	0.022969
36081	-2.00082	-13.971
36257	-2.00093	-5.40493
36433	-2.00107	-4.05107
36609	-2.00091	-3.51738
36785	-2.00095	-3.25163
36961	-0.00082133	2.17769
37137	-0.000840404	0.90769
37313	-0.000897627	0.673168
37489	-0.000916701	0.543204
37665	-0.00105022	0.464244
37841	-0.000859479	0.415358
38017	-0.000859479	0.379838
38193	-0.000916701	0.35271
38369	-0.000840404	0.332485
38545	-0.000802256	0.316863
38721	-0.000802256	0.300223
38897	-0.00082133	0.285157
39073	-0.00103115	0.272139
39249	-0.000992997	0.26108
39425	-0.000954849	0.251308
39601	1.49955	209.235
39777	1.49968	7.8324
39953	1.49951	6.40004
40129	1.49953	5.98879
40305	-0.000954849	0.174981
40481	-0.000897627	0.16101
40657	-0.00106929	0.123259
40833	-0.000840404	0.103835
41009	-0.000935775	0.0914468
41185	-0.000840404	0.0826741
41361	-0.000992997	0.0763241
41537	-0.000802256	0.0706784
41713	-0.000916701	0.0650285
41889	-0.00105022	0.0605986
42065	-0.000764108	0.0569191
42241	-0.000745034	0.0534345
42417	-0.000992997	0.0503642
42593	-0.000764108	0.0478958
42769	-0.000878553	0.046105
42945	-0.000878553	0.0445287
43121	-0.000802256	0.0421399
43297	-0.000802256	0.0402497
43473	-0.000954849	0.0386247
43649	-0.00101207	0.0372931
43825	-0.000954849	0.0358604
44001	-0.00105022	0.0347109
44177	-0.00103115	0.0339354
44353	-0.00105022	0.0335806
44529	-0.000954849	0.0322921
44705	-0.000783182	0.0311395
44881	-0.000897627	0.0301748
45057	-0.00108837	0.0293556
45233	-0.00105022	0.0285685
45409	-0.000916701	0.0280121
45585	-0.000687812	0.0274825
45761	-0.000897627	0.0273722
45937	-0.000859479	0.0267159
46113	-0.000783182	0.0258209
46289	-0.000802256	0.0253003
46465	-0.000992997	0.0247686
46641	-0.000992997	0.0243382
46817	-0.000954849	0.023819
46993	-0.000916701	0.0235339
47169	-0.000992997	0.0235786
47345	-0.000840404	0.0233408
47521	-0.000992997	0.0224987
47697	-0.000954849	0.0220537
47873	-0.000954849	0.021759
48049	-0.000840404	0.0214028
48225	-0.000783182	0.0210681
48401	-0.000859479	0.020935
48577	-0.000878553	0.0209603
48753	-0.00101207	0.020899
48929	-0.00108837	0.0202811
49105	-0.000840404	0.0198508
49281	-2.0008	-11.8795
49457	-2.00078	-4.8018
49633	-2.00068	-3.66577
49809	-2.0008	-3.25185
49985	-2.00086	-3.07266
50161	-0.000783182	2.06013
50337	-0.000783182	0.717983
50513	-0.000878553	0.51292
50689	-0.000859479	0.408321
50865	-0.000935775	0.348569
51041	-0.00106929	0.309605
51217	-0.000954849	0.282502
51393	-0.000935775	0.263084
51569	-0.00108837	0.249293
51745	-0.000916701	0.238235
51921	-0.00103115	0.226755
52097	-0.00106929	0.217522
52273	-0.000859479	0.209635
52449	-0.00103115	0.202671
52625	-0.00082133	0.195924
52800	-0.000916701	0.189797