File: Data_29_Experiment/CA_274_010_minutes_C01.txt
time/s	Ewe/V	<I>/mA
1	1.49951	73.385
45	1.49949	11.7345
89	1.49951	8.31833
133	1.49951	6.62371
177	1.49966	5.52126
221	1.49964	4.70097
265	1.49962	4.11876
309	1.49959	3.73875
353	1.49966	3.44606
397	1.49959	3.21188
441	1.49955	3.03101
485	1.49957	2.89331
529	1.49955	2.80951
573	1.49951	2.76904
616.952	-0.00091589	-1.05939
660.952	-0.000896816	-0.147109
704.952	-0.000877742	-0.054988
748.952	-0.000839594	-0.0274628
792.952	-0.000782372	-0.0140598
836.952	-0.00082052	-0.00622583
880.952	-0.000858668	-0.00129498
924.952	-0.000896816	0.00197753
968.952	-0.000801446	0.00450425
1012.95	-0.000839594	0.00623703
1056.95	-0.00091589	0.00744423
1100.95	-0.000839594	0.00859248
1144.95	-0.000839594	0.00937448
1188.95	-0.000858668	0.0101507
1232.95	-0.000782372	0.0108235
1276.95	-0.00082052	0.0111656
1320.95	-0.000973113	0.0115755
1364.95	-0.000954038	0.0118145
1408.95	-0.000896816	0.0120702
1452.95	-0.000954038	0.0121628
1496.95	-0.00082052	0.0122535
1540.95	-0.000858668	0.0124292
1584.95	-0.000896816	0.0125124
1628.95	-0.000782372	0.0124731
1672.95	-0.000801446	0.0126067
1716.95	-0.000782372	0.0126295
1760.95	-0.00103033	0.0126099
1804.95	-0.000801446	0.0126408
1848.95	-0.000896816	0.0125629
1892.95	-0.000782372	0.0125388
1936.95	-0.000896816	0.0126627
1980.95	-0.000934964	0.0126151
2024.95	-0.000877742	0.0125753
2068.95	-0.000744223	0.0126603
2112.95	-0.000763297	0.0125739
2156.95	-0.000839594	0.0126439
2200.95	-0.00091589	0.0126364
2244.95	-0.000973113	0.0125951
2288.95	-0.000801446	0.0126296
2332.95	-0.000839594	0.0125943
2376.95	-0.000744223	0.0124312
2420.95	-0.000877742	0.0124139
2464.95	-0.000896816	0.0122998
2508.95	-0.000896816	0.0122559
2552.95	-0.000667927	0.0122473
2596.95	-0.000839594	0.0120853
2640.95	-0.00091589	0.0120843
2684.95	-0.000839594	0.0120524
2728.95	-0.000934964	0.0119376
2772.95	-0.00082052	0.0119731
2816.95	-0.000973113	0.0119074
2860.95	-0.000858668	0.0118336
2904.95	-0.000896816	0.0118296
2948.95	-0.000934964	0.0117446
2992.95	-0.000954038	0.0117423
3036.95	-0.00091589	0.0116713
3080.95	-0.000763297	0.0116499
3124.95	-0.000763297	0.0115888
3168.95	-0.00104941	0.0115056
3212.95	-0.000992187	0.0114788
3256.95	-0.00082052	0.0113761
3300.95	-0.000877742	0.0113267
3344.95	-0.000782372	0.0112672
3388.95	-0.000782372	0.0112898
3432.95	-0.000877742	0.0112606
3476.95	-0.000744223	0.0113185
3520.95	-0.00082052	0.0112954
3564.95	-0.000839594	0.0111625
3608.95	-0.00091589	0.0112056
3652.95	-0.000992187	0.011173
3696.95	-0.000839594	0.0111689
3740.95	-0.00082052	0.0110634
3784.95	-0.000896816	0.0109777
3828.95	-0.000763297	0.0109211
3872.95	-0.000934964	0.0108338
3916.95	-0.000801446	0.0108338
3960.95	-0.000877742	0.0106525
4004.95	-0.000839594	0.010668
4048.95	-0.000858668	0.0105848
4092.95	-0.000801446	0.0105927
4136.95	-0.000858668	0.0105924
4180.95	-0.000934964	0.010594
4224.95	-0.000839594	0.0104355
4268.95	-0.000839594	0.010461
4312.95	-0.000954038	0.0105154
4356.95	-0.00091589	0.0104653
4400.95	-0.000801446	0.010367
4444.95	-0.000934964	0.0104062
4488.95	-0.000896816	0.0103459
4532.95	-0.000934964	0.0102944
4576.95	-0.000934964	0.0103059
4620.95	-0.000877742	0.0102458
4664.95	-0.000896816	0.0101874
4708.95	-0.000839594	0.0101634
4752.95	-0.00091589	0.0101221
4796.95	-0.000839594	0.0101327
4840.95	-0.00082052	0.0101035
4884.95	-0.000725149	0.010095
4928.95	-0.00082052	0.0100546
4972.95	-0.000877742	0.0101209
5016.95	-0.000782372	0.0100832
5060.95	-0.000934964	0.0101069
5104.95	-0.000858668	0.0100853
5148.95	-0.000782372	0.0100343
5192.95	-0.000763297	0.0100551
5236.95	-0.000782372	0.00997416
5280.95	-0.000725149	0.0099126
5324.95	-0.000839594	0.00988586
5368.95	-0.000934964	0.00976645
5412.95	-0.000973113	0.00969944
5456.95	-0.000763297	0.00975088
5500.95	-0.000934964	0.00975431
5544.95	-0.00091589	0.00968369
5588.95	-0.000877742	0.00960225
5632.95	-0.00082052	0.0095441
5676.95	-0.000934964	0.00962812
5720.95	-0.000934964	0.00958739
5764.95	-0.000782372	0.00959412
5808.95	-0.000896816	0.0095425
5852.95	-0.000877742	0.00952863
5896.95	-0.000896816	0.00955522
5940.95	-0.00082052	0.00953353
5984.95	-0.000725149	0.00950921
6028.95	-0.00101126	0.00943603
6072.95	-0.000801446	0.00950082
6116.95	-0.000706075	0.00942548
6160.95	-0.00091589	0.00939101
6204.95	-0.000858668	0.00932466
6248.95	-0.000839594	0.00929012
6292.95	-0.000858668	0.00932572
6336.95	-0.000744223	0.00933177
6380.95	-0.00101126	0.00931329
6424.95	-0.00103033	0.00921409
6468.95	-0.000877742	0.00937481
6512.95	-0.000839594	0.0093542
6556.95	-0.00091589	0.0092489
6600.95	-0.000763297	0.00933524
6644.95	-0.00082052	0.009288
6688.95	-0.000801446	0.00919248
6732.95	-0.00091589	0.00916586
6776.95	-0.000858668	0.00904467
6820.95	-0.000839594	0.00902512
6864.95	-0.000934964	0.00898018
6908.95	-0.000801446	0.00897078
6952.95	-0.000877742	0.00897858
6996.95	-0.000973113	0.00894154
7040.95	-0.000744223	0.00889229
7084.95	-0.000858668	0.0088995
7128.95	-0.000877742	0.0088702
7172.95	-0.000896816	0.00887276
7216.95	-0.000858668	0.00885995
7260.95	-0.000763297	0.00887554
7304.95	-0.000782372	0.00887844
7348.95	-0.000858668	0.0087768
7392.95	-0.00082052	0.00877706
7436.95	-0.000896816	0.00873359
7480.95	-0.000763297	0.00869863
7524.95	-0.000763297	0.0086894
7568.95	-0.00091589	0.00870342
7612.95	-0.000858668	0.00866488
7656.95	-0.000934964	0.00860958
7700.95	-0.00103033	0.00866346
7744.95	-0.000782372	0.00858602
7788.95	-0.00082052	0.00860997
7832.95	-0.000877742	0.00864106
7876.95	-0.000877742	0.00854613
7920.95	-0.000992187	0.00854591
7964.95	-0.000896816	0.00860112
8008.95	-0.00082052	0.00855526
8052.95	-0.000896816	0.00860087
8096.95	-0.000992187	0.00854427
8140.95	-0.000858668	0.00849991
8184.95	-0.000763297	0.00845862
8228.95	-0.000839594	0.00841061
8272.95	-0.000954038	0.00833732
8316.95	-0.000896816	0.00832587
8360.95	-0.00082052	0.00828663
8404.95	-0.000896816	0.00828668
8448.95	-0.000801446	0.00822229
8492.95	-0.000801446	0.00827738
8536.95	-0.000877742	0.00825668
8580.95	-0.000858668	0.00821735
8624.95	-0.000973113	0.00817688
8668.95	-0.00101126	0.00817579
8712.95	-0.000782372	0.00819996
8756.95	-0.000858668	0.00813324
8800.95	-0.00091589	0.00809089
8844.95	-0.000839594	0.00814203
8888.95	-0.000801446	0.00816182
8932.95	-0.000858668	0.00808548
8976.95	-0.00082052	0.00804785
9020.95	-0.000801446	0.00803855
9064.95	-0.000877742	0.00802891
9108.95	-0.000877742	0.00799994
9152.95	-0.000973113	0.0079376
9196.95	-0.000934964	0.00797549
9240.95	-0.000839594	0.00810186
9284.95	-0.000877742	0.00798167
9328.95	-0.000954038	0.0080062
9372.95	-0.00082052	0.00797864
9416.95	-0.000858668	0.00800859
9460.95	-0.000839594	0.00802895
9504.95	-0.000973113	0.00796997
9548.95	-0.00101126	0.00801094
9592.95	-0.00082052	0.00790107
9636.95	-2.00087	-12.3553
9680.95	-2.00082	-6.74674
9724.95	-2.00085	-5.0876
9768.95	-2.00074	-4.28504
9812.95	-2.00082	-3.78265
9856.95	-2.00087	-3.47957
9900.95	-2.00101	-3.22789
9944.95	-2.00074	-3.06126
9988.95	-2.00078	-2.9183
10033	-2.00091	-2.81377
10077	-2.00084	-2.73384
10121	-2.0008	-2.65183
10165	-2.00085	-2.57653
10209	-2.00095	-2.53803
10253	-2.00089	-2.4863
10297	-2.00084	-2.45423
10341	-2.00078	-2.40777
10385	-2.00085	-2.38846
10429	-2.00089	-2.34249
10473	-2.00074	-2.35605
10517	-0.000744223	4.73168
10561	-0.000877742	1.00124
10605	-0.00101126	0.565712
10649	-0.000763297	0.400966
10693	-0.000954038	0.316492
10737	-0.000934964	0.264649
10781	-0.000744223	0.230107
10825	-0.000744223	0.205308
10869	-0.000763297	0.186558
10913	-0.000934964	0.171818
10957	-0.000858668	0.160023
11001	-0.00091589	0.150084
11045	-0.000896816	0.141728
11089	-0.000744223	0.134562
11133	-0.00101126	0.128314
11177	-0.000687001	0.122758
11221	-0.000858668	0.117739
11265	-0.000858668	0.113302
11309	-0.000877742	0.109266
11353	-0.00082052	0.105363
11397	-0.000801446	0.102053
11441	-0.000877742	0.0990482
11485	-0.00082052	0.0962169
11529	-0.000839594	0.0935089
11573	-0.000782372	0.0910607
11617	-0.000801446	0.0886963
11661	-0.000896816	0.0864848
11705	-0.000954038	0.0843597
11749	-0.00091589	0.0824779
11793	-0.00082052	0.0806009
11837	-0.000877742	0.0788738
11881	-0.000801446	0.0772567
11925	-0.000954038	0.0756553
11969	-0.000725149	0.0742517
12013	-0.00091589	0.0729173
12057	-0.000877742	0.0715028
12101	-0.000973113	0.0702386
12145	-0.000782372	0.0691072
12189	-0.000763297	0.0678924
12233	-0.000744223	0.0669773
12277	-0.000877742	0.0659373
12321	-0.000896816	0.0649026
12365	-0.000896816	0.0640589
12409	-0.000877742	0.0631374
12453	-0.000839594	0.0621938
12497	-0.000839594	0.0613253
12541	-0.00091589	0.0605606
12585	-0.000801446	0.0596229
12629	-0.000877742	0.0588911
12673	-0.000877742	0.0581052
12717	-0.000896816	0.057382
12761	-0.000763297	0.0566952
12805	-0.000992187	0.0560775
12849	-0.000954038	0.0554682
12893	-0.000934964	0.0547833
12937	-0.000858668	0.0541278
12981	-0.000877742	0.0536854
13025	-0.000877742	0.0530949
13069	-0.000992187	0.0525759
13113	-0.000725149	0.0519855
13157	-0.000744223	0.0515464
13200	-0.00082052	0.0509584