File: Data_28_Experiment/CA_266_005_minutes_C01.txt
time/s	Ewe/V	<I>/mA
1	1.49945	299.822
49	1.49951	18.1047
97	1.49953	32.0087
145	1.49962	35.1822
193	1.49955	33.797
241	1.49955	30.6456
289	1.49947	27.1294
336.952	-0.000877742	-0.775337
384.952	-0.000858668	-0.0938115
432.952	-0.000934964	-0.027507
480.952	-0.000687001	-0.00570901
528.952	-0.000877742	0.00872623
576.952	-0.000877742	0.0164947
624.952	-0.00103033	0.0198778
672.952	-0.000801446	0.0199614
720.952	-0.000934964	0.0191326
768.952	-0.000896816	0.0189253
816.952	-0.000896816	0.0172398
864.952	-0.000839594	0.0158951
912.952	-0.00101126	0.0172189
960.952	-0.00106848	0.0181427
1008.95	-0.00082052	0.0184131
1056.95	-0.000934964	0.0180938
1104.95	-0.000973113	0.018206
1152.95	-0.000706075	0.0180403
1200.95	-0.000801446	0.0176552
1248.95	-0.000896816	0.0178022
1296.95	-0.000877742	0.0176099
1344.95	-0.000896816	0.0175629
1392.95	-0.00082052	0.017616
1440.95	-0.000973113	0.017636
1488.95	-0.000954038	0.0173697
1536.95	-0.00103033	0.0176609
1584.95	-0.00106848	0.0175016
1632.95	-0.000877742	0.017299
1680.95	-0.000954038	0.0177314
1728.95	-0.00091589	0.0179418
1776.95	-0.000896816	0.017391
1824.95	-0.000954038	0.0175279
1872.95	-0.000877742	0.017732
1920.95	-0.000954038	0.0174849
1968.95	-0.00106848	0.0179258
2016.95	-0.00091589	0.0181045
2064.95	-0.000934964	0.0177842
2112.95	-0.000992187	0.0177126
2160.95	-0.000934964	0.017877
2208.95	-0.000896816	0.0174154
2256.95	-0.00091589	0.0174192
2304.95	-0.000801446	0.0176366
2352.95	-0.00091589	0.0171807
2400.95	-0.00091589	0.017457
2448.95	-0.000782372	0.0177808
2496.95	-0.000858668	0.0170038
2544.95	-0.00082052	0.0170316
2592.95	-0.000877742	0.0173956
2640.95	-0.00091589	0.0167111
2688.95	-0.000896816	0.0167054
2736.95	-0.000877742	0.0169619
2784.95	-0.000973113	0.0162108
2832.95	-0.000877742	0.0163575
2880.95	-0.000744223	0.0167991
2928.95	-0.000801446	0.0161147
2976.95	-0.000934964	0.016001
3024.95	-0.00091589	0.0165393
3072.95	-0.000763297	0.0160336
3120.95	-0.000839594	0.0161991
3168.95	-0.000858668	0.0165842
3216.95	-0.000877742	0.0159842
3264.95	-0.000896816	0.0160632
3312.95	-0.000992187	0.0166051
3360.95	-0.000934964	0.0158979
3408.95	-0.000896816	0.0158613
3456.95	-0.000973113	0.0162428
3504.95	-0.000858668	0.0156941
3552.95	-0.000706075	0.0156636
3600.95	-0.000934964	0.0161362
3648.95	-0.000934964	0.0153802
3696.95	-0.000954038	0.0155825
3744.95	-0.000992187	0.0158188
3792.95	-0.000973113	0.0153219
3840.95	-0.000763297	0.0155091
3888.95	-0.000973113	0.0156287
3936.95	-0.000992187	0.0150934
3984.95	-0.00108756	0.0151266
4032.95	-0.000934964	0.0153687
4080.95	-0.000934964	0.0149031
4128.95	-0.00091589	0.0149774
4176.95	-0.00091589	0.0152861
4224.95	-0.000858668	0.0147566
4272.95	-0.00091589	0.0149211
4320.95	-0.000934964	0.015137
4368.95	-0.000954038	0.0149005
4416.95	-0.00103033	0.0148573
4464.95	-0.000934964	0.0148127
4512.95	-0.000934964	0.0143519
4560.95	-0.000896816	0.0144283
4608.95	-0.000839594	0.0144868
4656.95	-0.000839594	0.0139442
4704.95	-0.00106848	0.0139826
4752.95	-0.000858668	0.0141933
4800.95	-0.000801446	0.0136047
4848.95	-0.00091589	0.0137904
4896.95	-0.000877742	0.0139586
4944.95	-0.000973113	0.0136369
4992.95	-0.000858668	0.0136931
5040.95	-0.000877742	0.0138103
5088.95	-0.000858668	0.0133362
5136.95	-0.00091589	0.0133312
5184.95	-0.000954038	0.0133371
5232.95	-0.000896816	0.0131704
5280.95	-0.000782372	0.0132493
5328.95	-0.00082052	0.013333
5376.95	-0.000858668	0.0130939
5424.95	-0.000858668	0.0130946
5472.95	-0.000896816	0.0131612
5520.95	-0.000896816	0.0128685
5568.95	-0.00101126	0.0129629
5616.95	-0.000801446	0.0130377
5664.95	-0.00091589	0.0128456
5712.95	-0.00091589	0.0129882
5760.95	-0.00106848	0.0129132
5808.95	-0.00091589	0.0127951
5856.95	-0.000934964	0.0129301
5904.95	-0.00101126	0.0126908
5952.95	-0.000954038	0.0126206
6000.95	-0.000934964	0.0126209
6048.95	-0.000839594	0.0124627
6096.95	-0.000877742	0.0124456
6144.95	-0.000839594	0.0122871
6192.95	-0.000801446	0.01225
6240.95	-0.00103033	0.0122636
6288.95	-0.00091589	0.0121121
6336.95	-0.00104941	0.0122204
6384.95	-0.000839594	0.0119902
6432.95	-0.000973113	0.0120682
6480.95	-0.000934964	0.0120127
6528.95	-0.000954038	0.011689
6576.95	-0.000992187	0.0119231
6624.95	-0.000896816	0.0118965
6672.95	-0.00082052	0.0120229
6720.95	-0.000954038	0.0117848
6768.95	-0.000992187	0.0117503
6816.95	-0.000763297	0.011827
6864.95	-0.000858668	0.0116104
6912.95	-0.000877742	0.0115633
6960.95	-0.000801446	0.0115969
7008.95	-0.000801446	0.0114695
7056.95	-0.000896816	0.0114592
7104.95	-0.000877742	0.0115668
7152.95	-0.000934964	0.0113607
7200.95	-0.000839594	0.0113579
7248.95	-0.000782372	0.0115402
7296.95	-0.000877742	0.0111939
7344.95	-0.000954038	0.011221
7392.95	-0.000839594	0.0113071
7440.95	-0.000839594	0.0109406
7488.95	-0.000934964	0.0110158
7536.95	-0.000934964	0.0111893
7584.95	-0.000839594	0.0109237
7632.95	-0.00091589	0.0107983
7680.95	-0.00091589	0.0111016
7728.95	-0.000934964	0.0106889
7776.95	-0.000858668	0.0107627
7824.95	-0.000782372	0.0108997
7872.95	-0.000782372	0.0106046
7920.95	-0.000858668	0.0106308
7968.95	-0.000934964	0.0107467
8016.95	-0.000934964	0.0104029
8064.95	-0.000839594	0.0103805
8112.95	-0.000839594	0.0106128
8160.95	-0.00091589	0.010273
8208.95	-0.00082052	0.0102317
8256.95	-0.000896816	0.0104502
8304.95	-0.000839594	0.0101679
8352.95	-0.000858668	0.0102855
8400.95	-0.00103033	0.0105185
8448.95	-0.000725149	0.0100908
8496.95	-0.000934964	0.0101034
8544.95	-0.000896816	0.0102446
8592.95	-0.000973113	0.00992639
8640.95	-0.000858668	0.00987652
8688.95	-0.00082052	0.0101807
8736.95	-0.000896816	0.00971738
8784.95	-0.000858668	0.00972348
8832.95	-0.000858668	0.00991226
8880.95	-0.000744223	0.00953083
8928.95	-0.000992187	0.00957154
8976.95	-0.00104941	0.00967402
9024.95	-0.000858668	0.0093856
9072.95	-0.000782372	0.0093749
9120.95	-0.000877742	0.00944515
9168.95	-0.00082052	0.0090834
9216.95	-0.000744223	0.00923735
9264.95	-0.000877742	0.00939135
9312.95	-0.000954038	0.00876508
9360.95	-0.000744223	0.00897771
9408.95	-0.000954038	0.00919493
9456.95	-0.000896816	0.00883834
9504.95	-0.000877742	0.00884235
9552.95	-0.000839594	0.00902337
9600.95	-0.000858668	0.00860822
9648.95	-0.000839594	0.00851265
9696.95	-0.000858668	0.00883874
9744.95	-0.00091589	0.00843053
9792.95	-0.000839594	0.00852047
9840.95	-0.000896816	0.00857586
9888.95	-0.000896816	0.00841998
9936.95	-0.000973113	0.00849157
9984.95	-0.000877742	0.00871064
10033	-0.00091589	0.00830367
10081	-0.000877742	0.00826154
10129	-0.000801446	0.0085062
10177	-0.000877742	0.00824292
10225	-0.000973113	0.00827158
10273	-0.000801446	0.00835413
10321	-0.000839594	0.0082773
10369	-0.000934964	0.00822378
10417	-0.000839594	0.00826789
10465	-0.000763297	0.00803157
10513	-0.00091589	0.00819915
10561	-0.000896816	0.00810044
10609	-0.000954038	0.00795749
10657	-0.000801446	0.00794924
10705	-0.000858668	0.0080766
10753	-0.00091589	0.00789362
10801	-2.00085	-220.32
10849	-2.00089	-35.0962
10897	-2.00099	-16.7622
10945	-2.00095	-11.2092
10993	-2.00074	-8.70947
11041	-2.00093	-7.34123
11089	-2.00093	-6.55832
11137	-2.00085	-6.02908
11185	-2.00095	-5.6899
11233	-2.00089	-5.43057
11281	-2.0008	-5.26462
11329	-2.00093	-5.18588
11377	-2.00087	-5.0841
11425	-2.00093	-5.05332
11473	-2.00087	-5.02582
11521	-2.00093	-4.99987
11569	-2.00093	-5.02003
11617	-2.00072	-5.00415
11665	-2.00084	-5.00849
11713	-0.000973113	7.44694
11761	-0.000954038	1.58113
11809	-0.000992187	1.15594
11857	-0.00091589	1.00597
11905	-0.00082052	0.909857
11953	-0.000782372	0.838331
12001	-0.00091589	0.783945
12049	-0.000858668	0.731546
12097	-0.000896816	0.686458
12145	-0.000973113	0.647648
12193	-0.00091589	0.609163
12241	-0.000763297	0.575196
12289	-0.000954038	0.54569
12337	-0.000877742	0.516955
12385	-0.000877742	0.48996
12433	-0.000782372	0.464424
12481	-0.000896816	0.441366
12529	-0.000973113	0.420554
12577	-0.000839594	0.403016
12625	-0.000896816	0.386284
12673	-0.000934964	0.370335
12721	-0.000934964	0.356974
12769	-0.000896816	0.344339
12817	-0.00101126	0.332148
12865	-0.000858668	0.32194
12913	-0.000934964	0.312127
12961	-0.000954038	0.302791
13009	-0.000973113	0.294533
13057	-0.000992187	0.286911
13105	-0.00091589	0.27919
13153	-0.000973113	0.272806
13201	-0.00091589	0.266371
13249	-0.00103033	0.259401
13297	-0.000782372	0.254335
13345	-0.000858668	0.249473
13393	-0.000877742	0.243818
13441	-0.000973113	0.239189
13489	-0.000839594	0.23534
13537	-0.00103033	0.230368
13585	-0.000934964	0.226482
13633	-0.00103033	0.223219
13681	-0.000954038	0.219041
13729	-0.000839594	0.215705
13777	-0.00091589	0.213199
13825	-0.000858668	0.209351
13873	-0.00091589	0.206315
13921	-0.000858668	0.204641
13969	-0.000763297	0.200836
14017	-0.000877742	0.198241
14065	-0.000877742	0.196545
14113	-0.00082052	0.193118
14161	-0.00091589	0.191003
14209	-0.000801446	0.189552
14257	-0.000954038	0.186567
14305	-0.000858668	0.18433
14353	-0.000896816	0.183298
14400	-0.000877742	0.185297