File: Data_30_Experiment/CA_001_C01.txt
time/s	Ewe/V	<I>/mA
1	1.49962	408.238
185	1.49955	24.2628
369	1.49957	15.4584
553	1.49943	11.5008
737	1.49938	9.11636
921	1.49941	7.5784
1105	1.49938	6.5263
1288.95	-0.000764108	0.371591
1472.95	-0.00105022	0.137405
1656.95	-0.00082133	0.0933505
1840.95	-0.000973923	0.0823632
2024.95	-0.000935775	0.0631434
2208.95	-0.000840404	0.0643801
2392.95	-0.00072596	0.0552288
2576.95	-0.00105022	0.0489048
2760.95	-0.000973923	0.0493293
2944.95	-0.000992997	0.0413297
3128.95	-0.000935775	0.0456896
3312.95	-0.00108837	0.041558
3496.95	-0.000764108	0.0390226
3680.95	-0.000916701	0.0408517
3864.95	-0.000764108	0.0365704
4048.95	-0.00101207	0.0394054
4232.95	-0.000992997	0.0371117
4416.95	-0.00110744	0.0356615
4600.95	-0.000916701	0.0368494
4784.95	-0.00105022	0.0339031
4968.95	-0.00103115	0.0361467
5152.95	-0.000878553	0.0343618
5336.95	-0.000897627	0.0334268
5520.95	-0.000878553	0.0344176
5704.95	-0.000935775	0.0323968
5888.95	-0.00106929	0.0342448
6072.95	-0.000840404	0.0332983
6256.95	-0.000783182	0.0327304
6440.95	-0.000764108	0.0336408
6624.95	-0.000973923	0.0320751
6808.95	-0.000916701	0.0333386
6992.95	-0.00072596	0.0325016
7176.95	-0.000954849	0.032392
7360.95	-0.000897627	0.0324521
7544.95	-0.00082133	0.031246
7728.95	-0.000897627	0.0317659
7912.95	-0.000687812	0.0315342
8096.95	-0.000859479	0.0313909
8280.95	-0.000802256	0.0312541
8464.95	-0.000783182	0.0303251
8648.95	-0.000916701	0.03132
8832.95	-0.000973923	0.030565
9016.95	-0.000954849	0.030605
9200.95	-0.000840404	0.0307391
9384.95	-0.00082133	0.0297905
9568.95	-0.000859479	0.0304873
9752.95	-0.00108837	0.0299371
9936.95	-0.000859479	0.0300823
10121	-0.000878553	0.0299701
10305	-2.00089	-25.2073
10489	-2.00091	-9.15246
10673	-2.00082	-5.32802
10857	-2.00086	-3.9303
11041	-2.0008	-3.1978
11225	-0.000916701	1.76169
11409	-0.000916701	1.26755
11593	-0.000859479	1.04228
11777	-0.000859479	0.920438
11961	-0.00103115	0.823359
12145	-0.000802256	0.746225
12329	-0.000973923	0.699729
12513	-0.000802256	0.635539
12697	-0.00110744	0.592124
12881	-0.00106929	0.551818
13065	-0.000897627	0.513371
13249	-0.000916701	0.48933
13433	-0.000878553	0.451742
13617	-0.000840404	0.426036
13801	1.49955	296.48
13985	1.49941	10.9592
14169	1.4996	8.47453
14353	1.49949	7.4702
14537	1.49959	6.82788
14721	1.49957	6.36558
14905	1.49957	5.96692
15089	-0.000916701	0.133752
15273	-0.00101207	0.174036
15457	-0.00082133	0.135902
15641	-0.000916701	0.118984
15825	-0.000802256	0.104726
16009	-0.000935775	0.0983909
16193	-0.000840404	0.0890322
16377	-0.000916701	0.081896
16561	-0.000954849	0.0778212
16745	-0.00105022	0.0718909
16929	-0.000878553	0.0702556
17113	-0.000935775	0.0652826
17297	-0.00101207	0.0616576
17481	-0.000992997	0.059679
17665	-0.000935775	0.0563211
17849	-0.000878553	0.0558378
18033	-0.000954849	0.0523898
18217	-0.000897627	0.0504327
18401	-0.00106929	0.04904
18585	-0.000916701	0.0470536
18769	-0.00082133	0.0472833
18953	-0.000954849	0.0446744
19137	-0.00106929	0.0435034
19321	-0.000764108	0.042567
19505	-0.000935775	0.0409813
19689	-0.00114559	0.0413779
19873	-0.000706886	0.0392689
20057	-0.000935775	0.0381068
20241	-0.000878553	0.0375034
20425	-0.000878553	0.036462
20609	-0.000897627	0.036761
20793	-0.000859479	0.0350531
20977	-0.000897627	0.0344121
21161	-0.000859479	0.0337057
21345	-0.000954849	0.03286
21529	-0.000840404	0.0333274
21713	-0.000973923	0.0318269
21897	-0.00106929	0.0312315
22081	-0.000954849	0.0307397
22265	-0.000935775	0.0299945
22449	-0.000916701	0.0304725
22633	-0.000840404	0.029103
22817	-0.000878553	0.0288416
23001	-0.000935775	0.0281097
23185	-0.000954849	0.0277392
23369	-0.00105022	0.0281683
23553	-0.000992997	0.0269703
23737	-0.00101207	0.0267481
23921	-0.000992997	0.0262754
24105	-2.00093	-16.9152
24289	-2.00066	-6.35195
24473	-2.00089	-4.05842
24657	-2.00082	-3.11261
24841	-2.00095	-2.60634
25025	-0.00106929	1.20436
25209	-0.00105022	0.783425
25393	-0.000840404	0.616995
25577	-0.000954849	0.536552
25761	-0.00101207	0.49014
25945	-0.000973923	0.448034
26129	-0.000897627	0.428364
26313	-0.00103115	0.396462
26497	-0.000878553	0.37537
26681	-0.000783182	0.360275
26865	-0.000992997	0.342336
27049	-0.00103115	0.334355
27233	-0.000859479	0.316045
27417	-0.00105022	0.303327
27601	1.49949	234.56
27785	1.49957	7.90191
27969	1.49945	6.50826
28153	1.49943	6.15275
28337	1.49949	5.87131
28521	1.4994	5.57796
28705	1.49955	5.31855
28889	-0.00112652	0.0475393
29073	-0.000992997	0.127411
29257	-0.000935775	0.106716
29441	-0.000840404	0.0975044
29625	-0.000859479	0.0874853
29809	-0.000973923	0.0817474
29993	-0.000878553	0.0748197
30177	-0.000916701	0.0693111
30361	-0.000935775	0.0664485
30545	-0.000859479	0.0621347
30729	-0.000897627	0.0606173
30913	-0.000916701	0.0563652
31097	-0.000783182	0.0539043
31281	-0.00101207	0.0523896
31465	-0.00101207	0.0505671
31649	-0.00105022	0.0496854
31833	-0.000916701	0.0467898
32017	-0.00101207	0.0450567
32201	-0.00110744	0.0438704
32385	-0.00108837	0.0421651
32569	-0.00108837	0.0420205
32753	-0.000992997	0.0398184
32937	-0.000897627	0.0383668
33121	-0.00103115	0.037529
33305	-0.000897627	0.0366247
33489	-0.000802256	0.0365671
33673	-0.000878553	0.0348967
33857	-0.00072596	0.0339645
34041	-0.000802256	0.0334124
34225	-0.000954849	0.0326594
34409	-0.000897627	0.0327574
34593	-0.000954849	0.0310031
34777	-0.000878553	0.0302634
34961	-0.000859479	0.0296223
35145	-0.000992997	0.0290936
35329	-0.000935775	0.0292177
35513	-0.000916701	0.0279138
35697	-0.00082133	0.0274163
35881	-0.000992997	0.0270439
36065	-0.00101207	0.0265113
36249	-0.000745034	0.0269273
36433	-0.00105022	0.0255719
36617	-0.000954849	0.025167
36801	-0.000992997	0.0249573
36985	-0.000840404	0.0244417
37169	-0.000878553	0.0247779
37353	-0.00112652	0.0236508
37537	-0.000878553	0.0233219
37721	-0.00101207	0.0231428
37905	-2.00095	-13.5114
38089	-2.00087	-5.34314
38273	-2.00082	-3.52916
38457	-2.00082	-2.77413
38641	-2.00089	-2.39321
38825	-0.000916701	1.01687
39009	-0.00072596	0.604871
39193	-0.000954849	0.463692
39377	-0.000802256	0.390339
39561	-0.00101207	0.352376
39745	-0.000935775	0.320894
39929	-0.000935775	0.303515
40113	-0.000878553	0.285341
40297	-0.000764108	0.271197
40481	-0.000954849	0.262654
40665	-0.000954849	0.250498
40849	-0.000802256	0.243372
41033	-0.000935775	0.233764
41217	-0.000973923	0.225359
41401	1.49959	195.839
41585	1.49945	6.94867
41769	1.49962	5.69026
41953	1.4996	5.28605
42137	1.4996	5.04781
42321	1.49943	4.67514
42505	1.49949	4.43638
42689	-0.000935775	-0.00902118
42873	-0.000897627	0.0743387
43057	-0.000783182	0.0684854
43241	-0.000802256	0.0647407
43425	-0.000992997	0.0601388
43609	-0.000840404	0.0570545
43793	-0.000878553	0.0534722
43977	-0.00105022	0.0505342
44161	-0.00082133	0.0490685
44345	-0.000916701	0.0468633
44529	-0.000706886	0.0459818
44713	-0.00101207	0.0437336
44897	-0.00105022	0.0420656
45081	-0.000878553	0.0411642
45265	-0.000840404	0.0397685
45449	-0.00082133	0.0391797
45633	-0.00082133	0.0376053
45817	-0.000802256	0.0363839
46001	-0.000840404	0.0358822
46185	-0.000916701	0.0348748
46369	-0.00101207	0.0344707
46553	-0.000954849	0.0328799
46737	-0.000973923	0.0319941
46921	-0.000935775	0.0319118
47105	-0.000916701	0.031025
47289	-0.00101207	0.030851
47473	-0.000954849	0.0297922
47657	-0.000935775	0.0293029
47841	-0.000802256	0.0290881
48025	-0.000859479	0.0282206
48209	-0.000802256	0.0282409
48393	-0.00108837	0.0271191
48577	-0.000897627	0.0265356
48761	-0.00082133	0.0264375
48945	-0.000973923	0.025627
49129	-0.000973923	0.0256618
49313	-0.000973923	0.0247544
49497	-0.000973923	0.0242302
49681	-0.00106929	0.0242617
49865	-0.000859479	0.0236789
50049	-0.000859479	0.0236675
50233	-0.00103115	0.0228711
50417	-0.000992997	0.0223126
50601	-0.000973923	0.0224662
50785	-0.000859479	0.0219983
50969	-0.000897627	0.0220955
51153	-0.00101207	0.0212794
51337	-0.000859479	0.0210268
51521	-0.000840404	0.0211517
51705	-2.00114	-11.3372
51889	-2.00091	-4.66277
52073	-2.00089	-3.16087
52257	-2.00093	-2.54332
52441	-2.00086	-2.23101
52625	-0.000973923	0.915637
52809	-0.000840404	0.515406
52993	-0.00082133	0.392836
53177	-0.000916701	0.325812
53361	-0.000916701	0.288894
53545	-0.000802256	0.257621
53729	-0.000916701	0.238678
53913	-0.000897627	0.22488
54097	-0.000840404	0.212379
54281	-0.00110744	0.204606
54465	-0.000840404	0.1928
54649	-0.00103115	0.185564
54833	-0.00082133	0.179725
55017	-0.00105022	0.173289
55200	-0.000973923	0.169017