File: Data_30_Experiment/CA_267_015_minutes_C01.txt
time/s	Ewe/V	<I>/mA
1	1.49949	181.829
46	1.49953	19.7529
91	1.49959	16.4222
136	1.49955	13.3459
181	1.49951	10.8142
226	1.49966	9.72623
271	1.49959	9.32554
316	1.49947	9.19769
361	1.49945	9.07724
406	1.49955	9.01234
451	1.49966	9.07268
496	1.49955	9.09688
541	1.49949	9.15353
586	1.49959	9.12373
631	1.49955	9.03629
676	1.49945	9.06071
721	1.49962	9.03326
766	1.49966	9.00108
811	1.49949	8.92482
856	1.4994	8.76275
900.952	-0.000934964	-29.5129
945.952	-0.00091589	-0.63163
990.952	-0.000858668	-0.153175
1035.95	-0.000744223	-0.0512947
1080.95	-0.000782372	-0.0156845
1125.95	-0.000839594	0.00142678
1170.95	-0.00110663	0.0117642
1215.95	-0.000858668	0.0151797
1260.95	-0.000992187	0.0157511
1305.95	-0.00091589	0.0170911
1350.95	-0.00091589	0.01571
1395.95	-0.000782372	0.0138777
1440.95	-0.000954038	0.0115675
1485.95	-0.00091589	0.00915392
1530.95	-0.000801446	0.00801517
1575.95	-0.000877742	0.00622933
1620.95	-0.00106848	0.00475008
1665.95	-0.000934964	0.00382697
1710.95	-0.000877742	0.00317871
1755.95	-0.000744223	0.00307749
1800.95	-0.000992187	0.00292379
1845.95	-0.000763297	0.00172295
1890.95	-0.000877742	0.00149668
1935.95	-0.000896816	0.00104628
1980.95	-0.000744223	0.000891802
2025.95	-0.000934964	0.00136099
2070.95	-0.00103033	0.000330901
2115.95	-0.000934964	-3.05073e-06
2160.95	-0.000877742	-0.000544725
2205.95	-0.000839594	-0.000891736
2250.95	-0.000896816	-0.000124489
2295.95	-0.000801446	-0.00065483
2340.95	-0.000763297	-0.000871809
2385.95	-0.00082052	-0.00116275
2430.95	-0.000934964	-0.00147787
2475.95	-0.000744223	-0.00109994
2520.95	-0.00103033	-0.00124473
2565.95	-0.000839594	-0.00147224
2610.95	-0.000973113	-0.00150071
2655.95	-0.000763297	-0.00170278
2700.95	-0.00101126	-0.00146853
2745.95	-0.000877742	-0.00124387
2790.95	-0.00106848	-0.00155719
2835.95	-0.000763297	-0.00153547
2880.95	-0.000877742	-0.00164076
2925.95	-0.000782372	-0.00182606
2970.95	-0.000763297	-0.00108786
3015.95	-0.000839594	-0.00116416
3060.95	-0.000954038	-0.00126233
3105.95	-0.000973113	-0.00138266
3150.95	-0.00091589	-0.00128971
3195.95	-0.000934964	-0.000700536
3240.95	-0.000801446	-0.00108191
3285.95	-0.000877742	-0.00107075
3330.95	-0.00082052	-0.000897656
3375.95	-0.000801446	-0.00094371
3420.95	-0.000992187	-0.000424046
3465.95	-0.000839594	-0.000192612
3510.95	-0.000801446	-0.000314802
3555.95	-0.000877742	-0.000232509
3600.95	-0.000801446	-0.000293406
3645.95	-0.000839594	-1.43314e-05
3690.95	-0.000725149	0.000445816
3735.95	-0.000934964	0.00033641
3780.95	-0.000934964	0.000435543
3825.95	-0.00082052	0.000208605
3870.95	-0.000954038	0.00052518
3915.95	-0.000896816	0.00106684
3960.95	-0.000896816	0.000781246
4005.95	-0.000839594	0.00093109
4050.95	-0.000877742	0.000963418
4095.95	-0.000896816	0.00101055
4140.95	-0.00104941	0.00157716
4185.95	-0.000839594	0.00155328
4230.95	-0.000992187	0.00147933
4275.95	-0.000839594	0.00164378
4320.95	-0.000858668	0.00165862
4365.95	-0.000839594	0.00207408
4410.95	-0.000934964	0.00225372
4455.95	-0.000877742	0.00187613
4500.95	-0.00104941	0.00211584
4545.95	-0.000858668	0.00224944
4590.95	-0.00091589	0.00243866
4635.95	-0.000801446	0.00288962
4680.95	-0.000858668	0.00272117
4725.95	-0.000877742	0.00278424
4770.95	-0.000858668	0.00285403
4815.95	-0.000763297	0.00286027
4860.95	-0.000801446	0.00351846
4905.95	-0.00101126	0.00329661
4950.95	-0.00103033	0.0035383
4995.95	-0.000877742	0.00344123
5040.95	-0.000954038	0.00360187
5085.95	-0.000782372	0.0041473
5130.95	-0.000858668	0.00407889
5175.95	-0.00082052	0.00403918
5220.95	-0.000934964	0.00414088
5265.95	-0.000877742	0.00404087
5310.95	-0.00091589	0.00449299
5355.95	-0.000896816	0.00472021
5400.95	-0.000954038	0.00467239
5445.95	-0.000858668	0.00472931
5490.95	-0.00101126	0.00469438
5535.95	-0.000934964	0.0048617
5580.95	-0.000896816	0.00527527
5625.95	-0.000877742	0.00511368
5670.95	-0.000934964	0.00516439
5715.95	-0.00091589	0.00502228
5760.95	-0.000877742	0.00538242
5805.95	-0.000744223	0.00566973
5850.95	-0.00082052	0.00552952
5895.95	-0.000782372	0.00564661
5940.95	-0.00091589	0.00562827
5985.95	-0.000934964	0.00566673
6030.95	-0.000934964	0.00610859
6075.95	-0.000858668	0.00606927
6120.95	-0.000973113	0.00607674
6165.95	-0.000801446	0.00623269
6210.95	-0.000839594	0.00621665
6255.95	-0.000992187	0.0064721
6300.95	-0.000763297	0.00685051
6345.95	-0.000934964	0.0066219
6390.95	-0.000973113	0.00667068
6435.95	-0.00082052	0.00659654
6480.95	-0.00101126	0.00676614
6525.95	-0.00091589	0.0073741
6570.95	-0.000896816	0.00708676
6615.95	-0.00103033	0.00714064
6660.95	-0.000896816	0.00705915
6705.95	-0.000973113	0.00715889
6750.95	-0.000973113	0.00769751
6795.95	-0.000858668	0.0073612
6840.95	-0.000782372	0.00745461
6885.95	-0.00103033	0.0074165
6930.95	-0.000839594	0.00730836
6975.95	-0.000801446	0.00773095
7020.95	-0.000877742	0.00779036
7065.95	-0.000858668	0.00776486
7110.95	-0.000629779	0.00784461
7155.95	-0.000858668	0.00777616
7200.95	-0.000973113	0.0079921
7245.95	-0.00091589	0.00811742
7290.95	-0.000896816	0.0079635
7335.95	-0.000992187	0.00809235
7380.95	-0.000896816	0.00804912
7425.95	-0.000839594	0.00813467
7470.95	-0.000896816	0.00860706
7515.95	-0.00082052	0.00832335
7560.95	-0.000782372	0.00838313
7605.95	-0.000896816	0.00852302
7650.95	-0.000839594	0.00856193
7695.95	-0.00091589	0.00903365
7740.95	-0.000858668	0.00882867
7785.95	-0.000877742	0.008946
7830.95	-0.00082052	0.00886869
7875.95	-0.000763297	0.00894252
7920.95	-0.00103033	0.00921091
7965.95	-0.00104941	0.00926491
8010.95	-0.00091589	0.00925287
8055.95	-0.000896816	0.00910817
8100.95	-0.000801446	0.00886943
8145.95	-0.000858668	0.00940835
8190.95	-0.000954038	0.00958905
8235.95	-0.000858668	0.00929351
8280.95	-0.000973113	0.00938642
8325.95	-0.000954038	0.00933655
8370.95	-0.000801446	0.00940247
8415.95	-0.00101126	0.0097904
8460.95	-0.00091589	0.00937754
8505.95	-0.000877742	0.00968644
8550.95	-0.000801446	0.00958253
8595.95	-0.000744223	0.00964633
8640.95	-0.000801446	0.0100011
8685.95	-0.000801446	0.0097521
8730.95	-0.00091589	0.0097659
8775.95	-0.000896816	0.0096843
8820.95	-0.000896816	0.00972871
8865.95	-0.000877742	0.0100891
8910.95	-0.000839594	0.00999234
8955.95	-0.000934964	0.00993618
9000.95	-0.000763297	0.00992862
9045.95	-0.000877742	0.00992954
9090.95	-0.000934964	0.0101087
9135.95	-0.00091589	0.010361
9180.95	-0.000896816	0.0100389
9225.95	-0.000954038	0.0101977
9270.95	-0.000934964	0.00999136
9315.95	-0.000782372	0.010165
9360.95	-0.00082052	0.0105327
9405.95	-0.00091589	0.0102094
9450.95	-0.000896816	0.0102831
9495.95	-0.000858668	0.0101939
9540.95	-0.00108756	0.0102946
9585.95	-0.000877742	0.0105989
9630.95	-0.000992187	0.0104042
9675.95	-0.000973113	0.0104471
9720.95	-0.000896816	0.0103913
9765.95	-0.00091589	0.010301
9810.95	-0.00091589	0.0105476
9855.95	-0.000896816	0.0105776
9900.95	-2.00082	-169.366
9945.95	-2.00095	-27.7573
9990.95	-2.00085	-15.2978
10036	-2.00076	-10.8003
10081	-2.00085	-8.45999
10126	-2.00074	-7.13158
10171	-2.00076	-6.23162
10216	-2.00082	-5.62762
10261	-2.00085	-5.21477
10306	-2.00087	-4.84799
10351	-2.00082	-4.66759
10396	-2.00078	-4.48059
10441	-2.00093	-4.34436
10486	-2.0008	-4.22408
10531	-2.00093	-4.12075
10576	-2.0008	-4.03626
10621	-2.00087	-3.9655
10666	-2.0008	-3.91448
10711	-2.00084	-3.87403
10756	-2.00089	-3.84939
10801	-0.000934964	218.958
10846	-0.000858668	1.86551
10891	-0.000896816	1.11621
10936	-0.000934964	0.902591
10981	-0.000954038	0.798339
11026	-0.000725149	0.735754
11071	-0.000934964	0.68815
11116	-0.00103033	0.655174
11161	-0.000839594	0.631304
11206	-0.000934964	0.613234
11251	-0.000839594	0.601114
11296	-0.000858668	0.588702
11341	-0.000992187	0.576195
11386	-0.000839594	0.564861
11431	-0.000858668	0.553427
11476	-0.000973113	0.543468
11521	-0.000896816	0.532452
11566	-0.00082052	0.518772
11611	-0.000763297	0.50564
11656	-0.00091589	0.491899
11701	-0.000896816	0.476627
11746	-0.000954038	0.463794
11791	-0.000725149	0.448697
11836	-0.00103033	0.433515
11881	-0.000896816	0.419219
11926	-0.000858668	0.404746
11971	-0.000973113	0.391723
12016	-0.000992187	0.377093
12061	-0.000877742	0.362993
12106	-0.000877742	0.349602
12151	-0.000973113	0.33646
12196	-0.000858668	0.325104
12241	-0.00091589	0.313113
12286	-0.000954038	0.301001
12331	-0.00091589	0.289937
12376	-0.000973113	0.279255
12421	-0.000725149	0.270316
12466	-0.00082052	0.261645
12511	-0.00103033	0.252536
12556	-0.00082052	0.244519
12601	-0.000763297	0.236414
12646	-0.000934964	0.229835
12691	-0.000877742	0.223852
12736	-0.00091589	0.216877
12781	-0.00103033	0.210992
12826	-0.00091589	0.205173
12871	-0.00091589	0.199796
12916	-0.00104941	0.195689
12961	-0.000725149	0.19048
13006	-0.000858668	0.186029
13051	-0.000706075	0.181645
13096	-0.000858668	0.177551
13141	-0.000896816	0.174516
13186	-0.000782372	0.170748
13231	-0.000801446	0.167106
13276	-0.000801446	0.163966
13321	-0.000858668	0.160797
13366	-0.000934964	0.158244
13411	-0.000954038	0.155857
13456	-0.000973113	0.152933
13500	-0.000763297	0.150277